DATATYPE	 IR Spectrum
XYUNITS	 Wavenumber;Absorbance
DECIMALSYMBOL	 .
599.8177	 0.1232
601.7464	 0.1236
603.6751	 0.1228
605.6037	 0.1216
607.5324	 0.1206
609.4611	 0.1187
611.3898	 0.1161
613.3184	 0.1144
615.2471	 0.1143
617.1758	 0.1137
619.1045	 0.1120
621.0331	 0.1106
622.9618	 0.1092
624.8905	 0.1080
626.8192	 0.1073
628.7478	 0.1064
630.6765	 0.1054
632.6052	 0.1045
634.5339	 0.1041
636.4625	 0.1035
638.3912	 0.1027
640.3199	 0.1018
642.2485	 0.1010
644.1772	 0.1004
646.1059	 0.0999
648.0346	 0.0991
649.9632	 0.0984
651.8919	 0.0979
653.8206	 0.0975
655.7493	 0.0972
657.6779	 0.0968
659.6066	 0.0964
661.5353	 0.0960
663.4640	 0.0955
665.3926	 0.0951
667.3213	 0.0943
669.2500	 0.0921
671.1787	 0.0905
673.1073	 0.0889
675.0360	 0.0870
676.9647	 0.0850
678.8934	 0.0832
680.8220	 0.0817
682.7507	 0.0806
684.6794	 0.0795
686.6081	 0.0787
688.5367	 0.0780
690.4654	 0.0773
692.3941	 0.0768
694.3228	 0.0764
696.2514	 0.0759
698.1801	 0.0755
700.1088	 0.0751
702.0375	 0.0747
703.9661	 0.0742
705.8948	 0.0737
707.8235	 0.0731
709.7521	 0.0724
711.6808	 0.0718
713.6095	 0.0712
715.5382	 0.0705
717.4668	 0.0700
719.3955	 0.0693
721.3242	 0.0685
723.2529	 0.0678
725.1815	 0.0670
727.1102	 0.0662
729.0389	 0.0654
730.9676	 0.0646
732.8962	 0.0638
734.8249	 0.0630
736.7536	 0.0624
738.6823	 0.0618
740.6109	 0.0613
742.5396	 0.0608
744.4683	 0.0602
746.3970	 0.0597
748.3256	 0.0592
750.2543	 0.0586
752.1830	 0.0581
754.1117	 0.0575
756.0403	 0.0569
757.9690	 0.0563
759.8977	 0.0557
761.8264	 0.0551
763.7550	 0.0545
765.6837	 0.0539
767.6124	 0.0534
769.5411	 0.0528
771.4697	 0.0522
773.3984	 0.0517
775.3271	 0.0514
777.2557	 0.0511
779.1844	 0.0508
781.1131	 0.0506
783.0418	 0.0503
784.9704	 0.0498
786.8991	 0.0494
788.8278	 0.0490
790.7565	 0.0487
792.6851	 0.0485
794.6138	 0.0482
796.5425	 0.0480
798.4712	 0.0478
800.3998	 0.0477
802.3285	 0.0475
804.2572	 0.0473
806.1859	 0.0472
808.1145	 0.0472
810.0432	 0.0471
811.9719	 0.0471
813.9006	 0.0472
815.8292	 0.0473
817.7579	 0.0474
819.6866	 0.0475
821.6153	 0.0476
823.5439	 0.0476
825.4726	 0.0477
827.4013	 0.0478
829.3300	 0.0477
831.2586	 0.0476
833.1873	 0.0474
835.1160	 0.0471
837.0447	 0.0469
838.9733	 0.0466
840.9020	 0.0462
842.8307	 0.0458
844.7594	 0.0454
846.6880	 0.0451
848.6167	 0.0447
850.5454	 0.0444
852.4740	 0.0441
854.4027	 0.0438
856.3314	 0.0436
858.2601	 0.0435
860.1887	 0.0435
862.1174	 0.0437
864.0461	 0.0441
865.9748	 0.0446
867.9034	 0.0450
869.8321	 0.0455
871.7608	 0.0459
873.6895	 0.0463
875.6181	 0.0466
877.5468	 0.0468
879.4755	 0.0471
881.4042	 0.0475
883.3328	 0.0481
885.2615	 0.0489
887.1902	 0.0498
889.1189	 0.0510
891.0475	 0.0523
892.9762	 0.0535
894.9049	 0.0543
896.8336	 0.0547
898.7622	 0.0545
900.6909	 0.0538
902.6196	 0.0528
904.5483	 0.0515
906.4769	 0.0503
908.4056	 0.0493
910.3343	 0.0487
912.2630	 0.0483
914.1916	 0.0482
916.1203	 0.0482
918.0490	 0.0482
919.9776	 0.0483
921.9063	 0.0485
923.8350	 0.0487
925.7637	 0.0488
927.6923	 0.0489
929.6210	 0.0490
931.5497	 0.0491
933.4784	 0.0493
935.4070	 0.0495
937.3357	 0.0498
939.2644	 0.0504
941.1931	 0.0512
943.1217	 0.0523
945.0504	 0.0536
946.9791	 0.0553
948.9078	 0.0571
950.8364	 0.0592
952.7651	 0.0615
954.6938	 0.0640
956.6225	 0.0667
958.5511	 0.0695
960.4798	 0.0722
962.4085	 0.0750
964.3372	 0.0777
966.2658	 0.0804
968.1945	 0.0831
970.1232	 0.0860
972.0519	 0.0890
973.9805	 0.0924
975.9092	 0.0962
977.8379	 0.1004
979.7666	 0.1048
981.6952	 0.1094
983.6239	 0.1143
985.5526	 0.1188
987.4812	 0.1229
989.4099	 0.1265
991.3386	 0.1295
993.2673	 0.1317
995.1959	 0.1333
997.1246	 0.1346
999.0533	 0.1359
1000.9820	 0.1373
1002.9106	 0.1393
1004.8393	 0.1420
1006.7680	 0.1453
1008.6967	 0.1494
1010.6253	 0.1542
1012.5540	 0.1595
1014.4827	 0.1649
1016.4114	 0.1698
1018.3400	 0.1741
1020.2687	 0.1777
1022.1974	 0.1806
1024.1261	 0.1829
1026.0547	 0.1846
1027.9834	 0.1861
1029.9121	 0.1874
1031.8408	 0.1883
1033.7694	 0.1887
1035.6981	 0.1884
1037.6268	 0.1876
1039.5555	 0.1864
1041.4841	 0.1851
1043.4128	 0.1836
1045.3415	 0.1818
1047.2702	 0.1795
1049.1988	 0.1766
1051.1275	 0.1733
1053.0562	 0.1694
1054.9849	 0.1652
1056.9135	 0.1610
1058.8422	 0.1568
1060.7709	 0.1525
1062.6995	 0.1483
1064.6282	 0.1445
1066.5569	 0.1412
1068.4856	 0.1382
1070.4142	 0.1356
1072.3429	 0.1330
1074.2716	 0.1304
1076.2003	 0.1277
1078.1289	 0.1250
1080.0576	 0.1222
1081.9863	 0.1196
1083.9150	 0.1173
1085.8436	 0.1152
1087.7723	 0.1131
1089.7010	 0.1111
1091.6297	 0.1092
1093.5583	 0.1074
1095.4870	 0.1058
1097.4157	 0.1043
1099.3444	 0.1031
1101.2730	 0.1021
1103.2017	 0.1013
1105.1304	 0.1006
1107.0591	 0.1001
1108.9877	 0.0996
1110.9164	 0.0991
1112.8451	 0.0984
1114.7738	 0.0975
1116.7024	 0.0966
1118.6311	 0.0956
1120.5598	 0.0943
1122.4885	 0.0927
1124.4171	 0.0905
1126.3458	 0.0876
1128.2745	 0.0839
1130.2031	 0.0796
1132.1318	 0.0752
1134.0605	 0.0708
1135.9892	 0.0668
1137.9178	 0.0637
1139.8465	 0.0616
1141.7752	 0.0606
1143.7039	 0.0602
1145.6325	 0.0604
1147.5612	 0.0610
1149.4899	 0.0616
1151.4186	 0.0624
1153.3472	 0.0629
1155.2759	 0.0630
1157.2046	 0.0625
1159.1333	 0.0614
1161.0619	 0.0597
1162.9906	 0.0573
1164.9193	 0.0545
1166.8480	 0.0515
1168.7766	 0.0484
1170.7053	 0.0456
1172.6340	 0.0432
1174.5627	 0.0411
1176.4913	 0.0395
1178.4200	 0.0382
1180.3487	 0.0373
1182.2774	 0.0367
1184.2060	 0.0363
1186.1347	 0.0359
1188.0634	 0.0359
1189.9921	 0.0361
1191.9207	 0.0365
1193.8494	 0.0373
1195.7781	 0.0382
1197.7068	 0.0394
1199.6354	 0.0407
1201.5641	 0.0422
1203.4928	 0.0439
1205.4214	 0.0457
1207.3501	 0.0477
1209.2788	 0.0499
1211.2075	 0.0522
1213.1361	 0.0546
1215.0648	 0.0570
1216.9935	 0.0593
1218.9222	 0.0614
1220.8508	 0.0633
1222.7795	 0.0651
1224.7082	 0.0667
1226.6369	 0.0680
1228.5655	 0.0691
1230.4942	 0.0699
1232.4229	 0.0704
1234.3516	 0.0708
1236.2802	 0.0709
1238.2089	 0.0707
1240.1376	 0.0703
1242.0663	 0.0696
1243.9949	 0.0687
1245.9236	 0.0676
1247.8523	 0.0662
1249.7810	 0.0648
1251.7096	 0.0633
1253.6383	 0.0618
1255.5670	 0.0602
1257.4957	 0.0585
1259.4243	 0.0569
1261.3530	 0.0553
1263.2817	 0.0537
1265.2104	 0.0521
1267.1390	 0.0504
1269.0677	 0.0488
1270.9964	 0.0472
1272.9250	 0.0455
1274.8537	 0.0438
1276.7824	 0.0423
1278.7111	 0.0408
1280.6397	 0.0395
1282.5684	 0.0384
1284.4971	 0.0373
1286.4258	 0.0365
1288.3544	 0.0359
1290.2831	 0.0354
1292.2118	 0.0352
1294.1405	 0.0351
1296.0691	 0.0352
1297.9978	 0.0354
1299.9265	 0.0357
1301.8552	 0.0362
1303.7838	 0.0368
1305.7125	 0.0374
1307.6412	 0.0381
1309.5699	 0.0389
1311.4985	 0.0398
1313.4272	 0.0407
1315.3559	 0.0416
1317.2846	 0.0424
1319.2132	 0.0431
1321.1419	 0.0436
1323.0706	 0.0440
1324.9993	 0.0443
1326.9279	 0.0443
1328.8566	 0.0442
1330.7853	 0.0439
1332.7140	 0.0433
1334.6426	 0.0425
1336.5713	 0.0415
1338.5000	 0.0404
1340.4286	 0.0396
1342.3573	 0.0392
1344.2860	 0.0388
1346.2147	 0.0385
1348.1433	 0.0383
1350.0720	 0.0384
1352.0007	 0.0386
1353.9294	 0.0390
1355.8580	 0.0396
1357.7867	 0.0404
1359.7154	 0.0413
1361.6441	 0.0421
1363.5727	 0.0431
1365.5014	 0.0441
1367.4301	 0.0447
1369.3588	 0.0451
1371.2874	 0.0453
1373.2161	 0.0450
1375.1448	 0.0445
1377.0735	 0.0439
1379.0021	 0.0427
1380.9308	 0.0412
1382.8595	 0.0396
1384.7882	 0.0380
1386.7168	 0.0363
1388.6455	 0.0351
1390.5742	 0.0344
1392.5029	 0.0337
1394.4315	 0.0330
1396.3602	 0.0327
1398.2889	 0.0326
1400.2176	 0.0328
1402.1462	 0.0332
1404.0749	 0.0335
1406.0036	 0.0340
1407.9323	 0.0349
1409.8609	 0.0358
1411.7896	 0.0368
1413.7183	 0.0380
1415.6469	 0.0390
1417.5756	 0.0396
1419.5043	 0.0404
1421.4330	 0.0410
1423.3616	 0.0409
1425.2903	 0.0403
1427.2190	 0.0395
1429.1477	 0.0381
1431.0763	 0.0366
1433.0050	 0.0354
1434.9337	 0.0343
1436.8624	 0.0330
1438.7910	 0.0327
1440.7197	 0.0329
1442.6484	 0.0331
1444.5771	 0.0335
1446.5057	 0.0340
1448.4344	 0.0347
1450.3631	 0.0356
1452.2918	 0.0363
1454.2204	 0.0365
1456.1491	 0.0363
1458.0778	 0.0364
1460.0065	 0.0371
1461.9351	 0.0373
1463.8638	 0.0365
1465.7925	 0.0350
1467.7212	 0.0334
1469.6498	 0.0314
1471.5785	 0.0284
1473.5072	 0.0252
1475.4359	 0.0235
1477.3645	 0.0223
1479.2932	 0.0214
1481.2219	 0.0206
1483.1505	 0.0201
1485.0792	 0.0199
1487.0079	 0.0197
1488.9366	 0.0198
1490.8652	 0.0208
1492.7939	 0.0222
1494.7226	 0.0231
1496.6513	 0.0241
1498.5799	 0.0255
1500.5086	 0.0269
1502.4373	 0.0277
1504.3660	 0.0275
1506.2946	 0.0258
1508.2233	 0.0247
1510.1520	 0.0245
1512.0807	 0.0236
1514.0093	 0.0224
1515.9380	 0.0208
1517.8667	 0.0192
1519.7954	 0.0182
1521.7240	 0.0168
1523.6527	 0.0162
1525.5814	 0.0159
1527.5101	 0.0156
1529.4387	 0.0155
1531.3674	 0.0152
1533.2961	 0.0146
1535.2248	 0.0146
1537.1534	 0.0146
1539.0821	 0.0136
1541.0108	 0.0131
1542.9395	 0.0137
1544.8681	 0.0143
1546.7968	 0.0148
1548.7255	 0.0149
1550.6542	 0.0149
1552.5828	 0.0150
1554.5115	 0.0149
1556.4402	 0.0145
1558.3688	 0.0136
1560.2975	 0.0147
1562.2262	 0.0159
1564.1549	 0.0163
1566.0835	 0.0167
1568.0122	 0.0169
1569.9409	 0.0174
1571.8696	 0.0185
1573.7982	 0.0191
1575.7269	 0.0196
1577.6556	 0.0211
1579.5843	 0.0227
1581.5129	 0.0243
1583.4416	 0.0259
1585.3703	 0.0276
1587.2990	 0.0294
1589.2276	 0.0309
1591.1563	 0.0321
1593.0850	 0.0326
1595.0137	 0.0325
1596.9423	 0.0320
1598.8710	 0.0313
1600.7997	 0.0304
1602.7284	 0.0298
1604.6570	 0.0294
1606.5857	 0.0290
1608.5144	 0.0287
1610.4431	 0.0286
1612.3717	 0.0286
1614.3004	 0.0285
1616.2291	 0.0282
1618.1578	 0.0285
1620.0864	 0.0288
1622.0151	 0.0287
1623.9438	 0.0287
1625.8724	 0.0289
1627.8011	 0.0289
1629.7298	 0.0291
1631.6585	 0.0293
1633.5871	 0.0289
1635.5158	 0.0282
1637.4445	 0.0285
1639.3732	 0.0290
1641.3018	 0.0291
1643.2305	 0.0289
1645.1592	 0.0283
1647.0879	 0.0276
1649.0165	 0.0279
1650.9452	 0.0278
1652.8739	 0.0265
1654.8026	 0.0265
1656.7312	 0.0270
1658.6599	 0.0268
1660.5886	 0.0261
1662.5173	 0.0252
1664.4459	 0.0246
1666.3746	 0.0242
1668.3033	 0.0231
1670.2320	 0.0219
1672.1606	 0.0216
1674.0893	 0.0210
1676.0180	 0.0202
1677.9467	 0.0198
1679.8753	 0.0192
1681.8040	 0.0184
1683.7327	 0.0172
1685.6614	 0.0170
1687.5900	 0.0172
1689.5187	 0.0171
1691.4474	 0.0171
1693.3760	 0.0169
1695.3047	 0.0163
1697.2334	 0.0161
1699.1621	 0.0161
1701.0907	 0.0168
1703.0194	 0.0175
1704.9481	 0.0181
1706.8768	 0.0190
1708.8054	 0.0202
1710.7341	 0.0213
1712.6628	 0.0222
1714.5915	 0.0230
1716.5201	 0.0239
1718.4488	 0.0258
1720.3775	 0.0277
1722.3062	 0.0290
1724.2348	 0.0302
1726.1635	 0.0313
1728.0922	 0.0320
1730.0209	 0.0324
1731.9495	 0.0324
1733.8782	 0.0322
1735.8069	 0.0324
1737.7356	 0.0324
1739.6642	 0.0314
1741.5929	 0.0304
1743.5216	 0.0292
1745.4503	 0.0277
1747.3789	 0.0260
1749.3076	 0.0242
1751.2363	 0.0225
1753.1650	 0.0212
1755.0936	 0.0199
1757.0223	 0.0182
1758.9510	 0.0168
1760.8797	 0.0154
1762.8083	 0.0139
1764.7370	 0.0130
1766.6657	 0.0120
1768.5943	 0.0109
1770.5230	 0.0099
1772.4517	 0.0090
1774.3804	 0.0088
1776.3090	 0.0087
1778.2377	 0.0085
1780.1664	 0.0082
1782.0951	 0.0080
1784.0237	 0.0079
1785.9524	 0.0078
1787.8811	 0.0077
1789.8098	 0.0074
1791.7384	 0.0070
1793.6671	 0.0070
1795.5958	 0.0072
1797.5245	 0.0071
1799.4531	 0.0070
1801.3818	 0.0069
1803.3105	 0.0071
1805.2392	 0.0071
1807.1678	 0.0070
1809.0965	 0.0069
1811.0252	 0.0068
1812.9539	 0.0069
1814.8825	 0.0070
1816.8112	 0.0069
1818.7399	 0.0069
1820.6686	 0.0069
1822.5972	 0.0068
1824.5259	 0.0066
1826.4546	 0.0065
1828.3833	 0.0064
1830.3119	 0.0063
1832.2406	 0.0066
1834.1693	 0.0068
1836.0979	 0.0067
1838.0266	 0.0067
1839.9553	 0.0067
1841.8840	 0.0066
1843.8126	 0.0063
1845.7413	 0.0064
1847.6700	 0.0066
1849.5987	 0.0067
1851.5273	 0.0067
1853.4560	 0.0068
1855.3847	 0.0068
1857.3134	 0.0068
1859.2420	 0.0067
1861.1707	 0.0067
1863.0994	 0.0067
1865.0281	 0.0066
1866.9567	 0.0064
1868.8854	 0.0062
1870.8141	 0.0065
1872.7428	 0.0067
1874.6714	 0.0068
1876.6001	 0.0068
1878.5288	 0.0067
1880.4575	 0.0068
1882.3861	 0.0068
1884.3148	 0.0068
1886.2435	 0.0067
1888.1722	 0.0067
1890.1008	 0.0066
1892.0295	 0.0068
1893.9582	 0.0068
1895.8869	 0.0067
1897.8155	 0.0068
1899.7442	 0.0069
1901.6729	 0.0069
1903.6016	 0.0069
1905.5302	 0.0068
1907.4589	 0.0068
1909.3876	 0.0068
1911.3162	 0.0069
1913.2449	 0.0069
1915.1736	 0.0069
1917.1023	 0.0068
1919.0309	 0.0068
1920.9596	 0.0068
1922.8883	 0.0068
1924.8170	 0.0069
1926.7456	 0.0070
1928.6743	 0.0070
1930.6030	 0.0070
1932.5317	 0.0071
1934.4603	 0.0071
1936.3890	 0.0071
1938.3177	 0.0071
1940.2464	 0.0071
1942.1750	 0.0070
1944.1037	 0.0070
1946.0324	 0.0071
1947.9611	 0.0072
1949.8897	 0.0072
1951.8184	 0.0072
1953.7471	 0.0072
1955.6758	 0.0072
1957.6044	 0.0072
1959.5331	 0.0072
1961.4618	 0.0072
1963.3905	 0.0072
1965.3191	 0.0072
1967.2478	 0.0071
1969.1765	 0.0072
1971.1052	 0.0073
1973.0338	 0.0072
1974.9625	 0.0072
1976.8912	 0.0073
1978.8198	 0.0073
1980.7485	 0.0073
1982.6772	 0.0073
1984.6059	 0.0073
1986.5345	 0.0073
1988.4632	 0.0073
1990.3919	 0.0072
1992.3206	 0.0072
1994.2492	 0.0073
1996.1779	 0.0074
1998.1066	 0.0074
2000.0353	 0.0074
2001.9639	 0.0074
2003.8926	 0.0074
2005.8213	 0.0074
2007.7500	 0.0074
2009.6786	 0.0075
2011.6073	 0.0075
2013.5360	 0.0075
2015.4647	 0.0075
2017.3933	 0.0075
2019.3220	 0.0075
2021.2507	 0.0076
2023.1794	 0.0076
2025.1080	 0.0076
2027.0367	 0.0076
2028.9654	 0.0076
2030.8941	 0.0077
2032.8227	 0.0077
2034.7514	 0.0077
2036.6801	 0.0077
2038.6088	 0.0077
2040.5374	 0.0077
2042.4661	 0.0077
2044.3948	 0.0077
2046.3234	 0.0077
2048.2521	 0.0077
2050.1808	 0.0077
2052.1095	 0.0078
2054.0381	 0.0078
2055.9668	 0.0078
2057.8955	 0.0078
2059.8242	 0.0078
2061.7528	 0.0078
2063.6815	 0.0078
2065.6102	 0.0078
2067.5389	 0.0078
2069.4675	 0.0078
2071.3962	 0.0078
2073.3249	 0.0078
2075.2536	 0.0078
2077.1822	 0.0078
2079.1109	 0.0078
2081.0396	 0.0078
2082.9683	 0.0078
2084.8969	 0.0078
2086.8256	 0.0079
2088.7543	 0.0078
2090.6830	 0.0078
2092.6116	 0.0079
2094.5403	 0.0079
2096.4690	 0.0079
2098.3977	 0.0079
2100.3263	 0.0079
2102.2550	 0.0079
2104.1837	 0.0079
2106.1124	 0.0079
2108.0410	 0.0079
2109.9697	 0.0079
2111.8984	 0.0079
2113.8271	 0.0079
2115.7557	 0.0079
2117.6844	 0.0079
2119.6131	 0.0079
2121.5417	 0.0079
2123.4704	 0.0079
2125.3991	 0.0079
2127.3278	 0.0079
2129.2564	 0.0079
2131.1851	 0.0079
2133.1138	 0.0079
2135.0425	 0.0079
2136.9711	 0.0079
2138.8998	 0.0079
2140.8285	 0.0079
2142.7572	 0.0079
2144.6858	 0.0079
2146.6145	 0.0079
2148.5432	 0.0079
2150.4719	 0.0079
2152.4005	 0.0079
2154.3292	 0.0079
2156.2579	 0.0078
2158.1866	 0.0078
2160.1152	 0.0078
2162.0439	 0.0078
2163.9726	 0.0078
2165.9013	 0.0078
2167.8299	 0.0078
2169.7586	 0.0077
2171.6873	 0.0077
2173.6160	 0.0077
2175.5446	 0.0076
2177.4733	 0.0076
2179.4020	 0.0076
2181.3307	 0.0076
2183.2593	 0.0076
2185.1880	 0.0076
2187.1167	 0.0076
2189.0453	 0.0075
2190.9740	 0.0075
2192.9027	 0.0076
2194.8314	 0.0075
2196.7600	 0.0075
2198.6887	 0.0075
2200.6174	 0.0075
2202.5461	 0.0075
2204.4747	 0.0075
2206.4034	 0.0075
2208.3321	 0.0075
2210.2608	 0.0075
2212.1894	 0.0075
2214.1181	 0.0074
2216.0468	 0.0074
2217.9755	 0.0075
2219.9041	 0.0074
2221.8328	 0.0074
2223.7615	 0.0074
2225.6902	 0.0075
2227.6188	 0.0075
2229.5475	 0.0074
2231.4762	 0.0074
2233.4049	 0.0074
2235.3335	 0.0074
2237.2622	 0.0074
2239.1909	 0.0074
2241.1196	 0.0074
2243.0482	 0.0074
2244.9769	 0.0074
2246.9056	 0.0074
2248.8343	 0.0074
2250.7629	 0.0074
2252.6916	 0.0074
2254.6203	 0.0074
2256.5490	 0.0074
2258.4776	 0.0074
2260.4063	 0.0073
2262.3350	 0.0073
2264.2636	 0.0073
2266.1923	 0.0073
2268.1210	 0.0073
2270.0497	 0.0073
2271.9783	 0.0073
2273.9070	 0.0073
2275.8357	 0.0073
2277.7644	 0.0073
2279.6930	 0.0073
2281.6217	 0.0073
2283.5504	 0.0073
2285.4791	 0.0073
2287.4077	 0.0073
2289.3364	 0.0073
2291.2651	 0.0074
2293.1938	 0.0074
2295.1224	 0.0074
2297.0511	 0.0074
2298.9798	 0.0074
2300.9085	 0.0075
2302.8371	 0.0075
2304.7658	 0.0075
2306.6945	 0.0076
2308.6232	 0.0076
2310.5518	 0.0076
2312.4805	 0.0077
2314.4092	 0.0077
2316.3379	 0.0077
2318.2665	 0.0077
2320.1952	 0.0078
2322.1239	 0.0078
2324.0526	 0.0079
2325.9812	 0.0079
2327.9099	 0.0079
2329.8386	 0.0079
2331.7672	 0.0079
2333.6959	 0.0079
2335.6246	 0.0079
2337.5533	 0.0080
2339.4819	 0.0080
2341.4106	 0.0080
2343.3393	 0.0080
2345.2680	 0.0080
2347.1966	 0.0079
2349.1253	 0.0079
2351.0540	 0.0080
2352.9827	 0.0081
2354.9113	 0.0082
2356.8400	 0.0083
2358.7687	 0.0083
2360.6974	 0.0082
2362.6260	 0.0082
2364.5547	 0.0083
2366.4834	 0.0083
2368.4121	 0.0082
2370.3407	 0.0081
2372.2694	 0.0080
2374.1981	 0.0079
2376.1268	 0.0078
2378.0554	 0.0077
2379.9841	 0.0076
2381.9128	 0.0076
2383.8415	 0.0075
2385.7701	 0.0075
2387.6988	 0.0075
2389.6275	 0.0075
2391.5562	 0.0075
2393.4848	 0.0075
2395.4135	 0.0075
2397.3422	 0.0075
2399.2708	 0.0075
2401.1995	 0.0075
2403.1282	 0.0075
2405.0569	 0.0075
2406.9855	 0.0075
2408.9142	 0.0075
2410.8429	 0.0075
2412.7716	 0.0076
2414.7002	 0.0076
2416.6289	 0.0076
2418.5576	 0.0076
2420.4863	 0.0076
2422.4149	 0.0076
2424.3436	 0.0076
2426.2723	 0.0076
2428.2010	 0.0076
2430.1296	 0.0077
2432.0583	 0.0077
2433.9870	 0.0077
2435.9157	 0.0077
2437.8443	 0.0077
2439.7730	 0.0077
2441.7017	 0.0077
2443.6304	 0.0077
2445.5590	 0.0077
2447.4877	 0.0078
2449.4164	 0.0078
2451.3451	 0.0077
2453.2737	 0.0078
2455.2024	 0.0078
2457.1311	 0.0078
2459.0598	 0.0078
2460.9884	 0.0078
2462.9171	 0.0079
2464.8458	 0.0079
2466.7745	 0.0079
2468.7031	 0.0079
2470.6318	 0.0079
2472.5605	 0.0079
2474.4891	 0.0079
2476.4178	 0.0079
2478.3465	 0.0079
2480.2752	 0.0079
2482.2038	 0.0079
2484.1325	 0.0079
2486.0612	 0.0080
2487.9899	 0.0080
2489.9185	 0.0080
2491.8472	 0.0080
2493.7759	 0.0080
2495.7046	 0.0080
2497.6332	 0.0080
2499.5619	 0.0080
2501.4906	 0.0080
2503.4193	 0.0080
2505.3479	 0.0081
2507.2766	 0.0081
2509.2053	 0.0081
2511.1340	 0.0081
2513.0626	 0.0081
2514.9913	 0.0081
2516.9200	 0.0081
2518.8487	 0.0081
2520.7773	 0.0082
2522.7060	 0.0082
2524.6347	 0.0082
2526.5634	 0.0082
2528.4920	 0.0082
2530.4207	 0.0082
2532.3494	 0.0082
2534.2781	 0.0082
2536.2067	 0.0082
2538.1354	 0.0082
2540.0641	 0.0082
2541.9927	 0.0083
2543.9214	 0.0083
2545.8501	 0.0083
2547.7788	 0.0083
2549.7074	 0.0083
2551.6361	 0.0083
2553.5648	 0.0083
2555.4935	 0.0083
2557.4221	 0.0083
2559.3508	 0.0084
2561.2795	 0.0084
2563.2082	 0.0084
2565.1368	 0.0084
2567.0655	 0.0084
2568.9942	 0.0085
2570.9229	 0.0084
2572.8515	 0.0084
2574.7802	 0.0085
2576.7089	 0.0085
2578.6376	 0.0085
2580.5662	 0.0085
2582.4949	 0.0085
2584.4236	 0.0085
2586.3523	 0.0085
2588.2809	 0.0086
2590.2096	 0.0086
2592.1383	 0.0086
2594.0670	 0.0086
2595.9956	 0.0086
2597.9243	 0.0086
2599.8530	 0.0086
2601.7817	 0.0086
2603.7103	 0.0087
2605.6390	 0.0087
2607.5677	 0.0087
2609.4964	 0.0087
2611.4250	 0.0087
2613.3537	 0.0088
2615.2824	 0.0088
2617.2110	 0.0088
2619.1397	 0.0088
2621.0684	 0.0089
2622.9971	 0.0089
2624.9257	 0.0089
2626.8544	 0.0089
2628.7831	 0.0090
2630.7118	 0.0090
2632.6404	 0.0090
2634.5691	 0.0090
2636.4978	 0.0090
2638.4265	 0.0091
2640.3551	 0.0091
2642.2838	 0.0091
2644.2125	 0.0091
2646.1412	 0.0091
2648.0698	 0.0092
2649.9985	 0.0092
2651.9272	 0.0092
2653.8559	 0.0092
2655.7845	 0.0092
2657.7132	 0.0092
2659.6419	 0.0093
2661.5706	 0.0093
2663.4992	 0.0093
2665.4279	 0.0093
2667.3566	 0.0094
2669.2853	 0.0094
2671.2139	 0.0094
2673.1426	 0.0094
2675.0713	 0.0095
2677.0000	 0.0095
2678.9286	 0.0095
2680.8573	 0.0095
2682.7860	 0.0096
2684.7146	 0.0096
2686.6433	 0.0097
2688.5720	 0.0097
2690.5007	 0.0097
2692.4293	 0.0097
2694.3580	 0.0097
2696.2867	 0.0098
2698.2154	 0.0098
2700.1440	 0.0098
2702.0727	 0.0098
2704.0014	 0.0099
2705.9301	 0.0099
2707.8587	 0.0099
2709.7874	 0.0099
2711.7161	 0.0100
2713.6448	 0.0100
2715.5734	 0.0100
2717.5021	 0.0101
2719.4308	 0.0101
2721.3595	 0.0102
2723.2881	 0.0101
2725.2168	 0.0102
2727.1455	 0.0102
2729.0742	 0.0102
2731.0028	 0.0102
2732.9315	 0.0102
2734.8602	 0.0103
2736.7889	 0.0103
2738.7175	 0.0103
2740.6462	 0.0104
2742.5749	 0.0103
2744.5036	 0.0104
2746.4322	 0.0104
2748.3609	 0.0104
2750.2896	 0.0104
2752.2182	 0.0105
2754.1469	 0.0105
