DATATYPE	 IR Spectrum
XYUNITS	 Wavenumber;Absorbance
DECIMALSYMBOL	 .
599.8177	 0.1855
601.7464	 0.1849
603.6751	 0.1839
605.6037	 0.1824
607.5324	 0.1812
609.4611	 0.1792
611.3898	 0.1775
613.3184	 0.1773
615.2471	 0.1769
617.1758	 0.1765
619.1045	 0.1755
621.0331	 0.1734
622.9618	 0.1722
624.8905	 0.1714
626.8192	 0.1698
628.7478	 0.1681
630.6765	 0.1666
632.6052	 0.1654
634.5339	 0.1642
636.4625	 0.1629
638.3912	 0.1618
640.3199	 0.1609
642.2485	 0.1601
644.1772	 0.1592
646.1059	 0.1584
648.0346	 0.1577
649.9632	 0.1571
651.8919	 0.1564
653.8206	 0.1560
655.7493	 0.1557
657.6779	 0.1553
659.6066	 0.1547
661.5353	 0.1537
663.4640	 0.1524
665.3926	 0.1518
667.3213	 0.1523
669.2500	 0.1502
671.1787	 0.1467
673.1073	 0.1440
675.0360	 0.1417
676.9647	 0.1396
678.8934	 0.1376
680.8220	 0.1358
682.7507	 0.1344
684.6794	 0.1332
686.6081	 0.1322
688.5367	 0.1313
690.4654	 0.1304
692.3941	 0.1297
694.3228	 0.1290
696.2514	 0.1285
698.1801	 0.1278
700.1088	 0.1270
702.0375	 0.1260
703.9661	 0.1251
705.8948	 0.1239
707.8235	 0.1226
709.7521	 0.1215
711.6808	 0.1203
713.6095	 0.1191
715.5382	 0.1181
717.4668	 0.1173
719.3955	 0.1165
721.3242	 0.1154
723.2529	 0.1141
725.1815	 0.1130
727.1102	 0.1120
729.0389	 0.1109
730.9676	 0.1097
732.8962	 0.1087
734.8249	 0.1078
736.7536	 0.1071
738.6823	 0.1064
740.6109	 0.1057
742.5396	 0.1050
744.4683	 0.1042
746.3970	 0.1034
748.3256	 0.1027
750.2543	 0.1020
752.1830	 0.1013
754.1117	 0.1006
756.0403	 0.0999
757.9690	 0.0992
759.8977	 0.0986
761.8264	 0.0979
763.7550	 0.0972
765.6837	 0.0964
767.6124	 0.0957
769.5411	 0.0950
771.4697	 0.0941
773.3984	 0.0933
775.3271	 0.0925
777.2557	 0.0916
779.1844	 0.0908
781.1131	 0.0899
783.0418	 0.0889
784.9704	 0.0879
786.8991	 0.0870
788.8278	 0.0863
790.7565	 0.0857
792.6851	 0.0852
794.6138	 0.0849
796.5425	 0.0848
798.4712	 0.0847
800.3998	 0.0846
802.3285	 0.0846
804.2572	 0.0845
806.1859	 0.0843
808.1145	 0.0841
810.0432	 0.0837
811.9719	 0.0830
813.9006	 0.0822
815.8292	 0.0813
817.7579	 0.0802
819.6866	 0.0790
821.6153	 0.0779
823.5439	 0.0769
825.4726	 0.0760
827.4013	 0.0751
829.3300	 0.0743
831.2586	 0.0736
833.1873	 0.0728
835.1160	 0.0720
837.0447	 0.0712
838.9733	 0.0704
840.9020	 0.0697
842.8307	 0.0690
844.7594	 0.0684
846.6880	 0.0682
848.6167	 0.0681
850.5454	 0.0682
852.4740	 0.0683
854.4027	 0.0685
856.3314	 0.0686
858.2601	 0.0686
860.1887	 0.0685
862.1174	 0.0683
864.0461	 0.0681
865.9748	 0.0678
867.9034	 0.0676
869.8321	 0.0674
871.7608	 0.0672
873.6895	 0.0671
875.6181	 0.0671
877.5468	 0.0671
879.4755	 0.0673
881.4042	 0.0676
883.3328	 0.0679
885.2615	 0.0685
887.1902	 0.0691
889.1189	 0.0699
891.0475	 0.0707
892.9762	 0.0714
894.9049	 0.0718
896.8336	 0.0717
898.7622	 0.0710
900.6909	 0.0699
902.6196	 0.0684
904.5483	 0.0667
906.4769	 0.0652
908.4056	 0.0638
910.3343	 0.0627
912.2630	 0.0618
914.1916	 0.0612
916.1203	 0.0609
918.0490	 0.0608
919.9776	 0.0609
921.9063	 0.0610
923.8350	 0.0613
925.7637	 0.0617
927.6923	 0.0622
929.6210	 0.0627
931.5497	 0.0634
933.4784	 0.0641
935.4070	 0.0649
937.3357	 0.0660
939.2644	 0.0672
941.1931	 0.0685
943.1217	 0.0699
945.0504	 0.0715
946.9791	 0.0731
948.9078	 0.0749
950.8364	 0.0769
952.7651	 0.0791
954.6938	 0.0814
956.6225	 0.0838
958.5511	 0.0863
960.4798	 0.0890
962.4085	 0.0915
964.3372	 0.0940
966.2658	 0.0963
968.1945	 0.0986
970.1232	 0.1009
972.0519	 0.1035
973.9805	 0.1064
975.9092	 0.1098
977.8379	 0.1139
979.7666	 0.1187
981.6952	 0.1241
983.6239	 0.1299
985.5526	 0.1358
987.4812	 0.1416
989.4099	 0.1470
991.3386	 0.1522
993.2673	 0.1570
995.1959	 0.1612
997.1246	 0.1650
999.0533	 0.1688
1000.9820	 0.1729
1002.9106	 0.1771
1004.8393	 0.1818
1006.7680	 0.1869
1008.6967	 0.1927
1010.6253	 0.1991
1012.5540	 0.2062
1014.4827	 0.2133
1016.4114	 0.2201
1018.3400	 0.2262
1020.2687	 0.2313
1022.1974	 0.2354
1024.1261	 0.2381
1026.0547	 0.2396
1027.9834	 0.2399
1029.9121	 0.2390
1031.8408	 0.2370
1033.7694	 0.2338
1035.6981	 0.2297
1037.6268	 0.2253
1039.5555	 0.2214
1041.4841	 0.2186
1043.4128	 0.2168
1045.3415	 0.2157
1047.2702	 0.2147
1049.1988	 0.2136
1051.1275	 0.2121
1053.0562	 0.2098
1054.9849	 0.2070
1056.9135	 0.2037
1058.8422	 0.1998
1060.7709	 0.1952
1062.6995	 0.1900
1064.6282	 0.1847
1066.5569	 0.1799
1068.4856	 0.1754
1070.4142	 0.1712
1072.3429	 0.1670
1074.2716	 0.1627
1076.2003	 0.1584
1078.1289	 0.1541
1080.0576	 0.1502
1081.9863	 0.1470
1083.9150	 0.1445
1085.8436	 0.1424
1087.7723	 0.1405
1089.7010	 0.1385
1091.6297	 0.1365
1093.5583	 0.1344
1095.4870	 0.1323
1097.4157	 0.1302
1099.3444	 0.1282
1101.2730	 0.1263
1103.2017	 0.1246
1105.1304	 0.1231
1107.0591	 0.1214
1108.9877	 0.1196
1110.9164	 0.1176
1112.8451	 0.1152
1114.7738	 0.1124
1116.7024	 0.1094
1118.6311	 0.1068
1120.5598	 0.1045
1122.4885	 0.1025
1124.4171	 0.1005
1126.3458	 0.0984
1128.2745	 0.0964
1130.2031	 0.0948
1132.1318	 0.0936
1134.0605	 0.0927
1135.9892	 0.0921
1137.9178	 0.0920
1139.8465	 0.0919
1141.7752	 0.0918
1143.7039	 0.0914
1145.6325	 0.0908
1147.5612	 0.0901
1149.4899	 0.0896
1151.4186	 0.0893
1153.3472	 0.0891
1155.2759	 0.0888
1157.2046	 0.0880
1159.1333	 0.0864
1161.0619	 0.0838
1162.9906	 0.0801
1164.9193	 0.0755
1166.8480	 0.0706
1168.7766	 0.0658
1170.7053	 0.0614
1172.6340	 0.0577
1174.5627	 0.0547
1176.4913	 0.0522
1178.4200	 0.0502
1180.3487	 0.0487
1182.2774	 0.0477
1184.2060	 0.0471
1186.1347	 0.0470
1188.0634	 0.0473
1189.9921	 0.0479
1191.9207	 0.0488
1193.8494	 0.0499
1195.7781	 0.0513
1197.7068	 0.0529
1199.6354	 0.0547
1201.5641	 0.0565
1203.4928	 0.0584
1205.4214	 0.0603
1207.3501	 0.0621
1209.2788	 0.0636
1211.2075	 0.0649
1213.1361	 0.0661
1215.0648	 0.0670
1216.9935	 0.0679
1218.9222	 0.0686
1220.8508	 0.0692
1222.7795	 0.0698
1224.7082	 0.0703
1226.6369	 0.0706
1228.5655	 0.0707
1230.4942	 0.0705
1232.4229	 0.0702
1234.3516	 0.0699
1236.2802	 0.0696
1238.2089	 0.0693
1240.1376	 0.0692
1242.0663	 0.0694
1243.9949	 0.0698
1245.9236	 0.0704
1247.8523	 0.0711
1249.7810	 0.0720
1251.7096	 0.0731
1253.6383	 0.0743
1255.5670	 0.0756
1257.4957	 0.0769
1259.4243	 0.0781
1261.3530	 0.0788
1263.2817	 0.0792
1265.2104	 0.0791
1267.1390	 0.0785
1269.0677	 0.0773
1270.9964	 0.0755
1272.9250	 0.0733
1274.8537	 0.0707
1276.7824	 0.0681
1278.7111	 0.0654
1280.6397	 0.0629
1282.5684	 0.0605
1284.4971	 0.0584
1286.4258	 0.0565
1288.3544	 0.0550
1290.2831	 0.0538
1292.2118	 0.0529
1294.1405	 0.0522
1296.0691	 0.0518
1297.9978	 0.0516
1299.9265	 0.0516
1301.8552	 0.0518
1303.7838	 0.0521
1305.7125	 0.0525
1307.6412	 0.0530
1309.5699	 0.0535
1311.4985	 0.0542
1313.4272	 0.0549
1315.3559	 0.0554
1317.2846	 0.0557
1319.2132	 0.0556
1321.1419	 0.0551
1323.0706	 0.0546
1324.9993	 0.0542
1326.9279	 0.0539
1328.8566	 0.0538
1330.7853	 0.0537
1332.7140	 0.0536
1334.6426	 0.0535
1336.5713	 0.0533
1338.5000	 0.0532
1340.4286	 0.0527
1342.3573	 0.0522
1344.2860	 0.0518
1346.2147	 0.0515
1348.1433	 0.0515
1350.0720	 0.0516
1352.0007	 0.0519
1353.9294	 0.0522
1355.8580	 0.0527
1357.7867	 0.0532
1359.7154	 0.0540
1361.6441	 0.0549
1363.5727	 0.0556
1365.5014	 0.0559
1367.4301	 0.0564
1369.3588	 0.0567
1371.2874	 0.0567
1373.2161	 0.0565
1375.1448	 0.0558
1377.0735	 0.0546
1379.0021	 0.0533
1380.9308	 0.0518
1382.8595	 0.0502
1384.7882	 0.0489
1386.7168	 0.0477
1388.6455	 0.0462
1390.5742	 0.0451
1392.5029	 0.0446
1394.4315	 0.0444
1396.3602	 0.0442
1398.2889	 0.0441
1400.2176	 0.0440
1402.1462	 0.0442
1404.0749	 0.0449
1406.0036	 0.0456
1407.9323	 0.0464
1409.8609	 0.0474
1411.7896	 0.0487
1413.7183	 0.0500
1415.6469	 0.0513
1417.5756	 0.0527
1419.5043	 0.0536
1421.4330	 0.0538
1423.3616	 0.0537
1425.2903	 0.0530
1427.2190	 0.0523
1429.1477	 0.0515
1431.0763	 0.0504
1433.0050	 0.0492
1434.9337	 0.0485
1436.8624	 0.0474
1438.7910	 0.0464
1440.7197	 0.0461
1442.6484	 0.0463
1444.5771	 0.0471
1446.5057	 0.0483
1448.4344	 0.0496
1450.3631	 0.0503
1452.2918	 0.0507
1454.2204	 0.0508
1456.1491	 0.0508
1458.0778	 0.0498
1460.0065	 0.0485
1461.9351	 0.0481
1463.8638	 0.0478
1465.7925	 0.0465
1467.7212	 0.0444
1469.6498	 0.0425
1471.5785	 0.0403
1473.5072	 0.0370
1475.4359	 0.0343
1477.3645	 0.0321
1479.2932	 0.0307
1481.2219	 0.0298
1483.1505	 0.0290
1485.0792	 0.0288
1487.0079	 0.0292
1488.9366	 0.0298
1490.8652	 0.0303
1492.7939	 0.0307
1494.7226	 0.0318
1496.6513	 0.0339
1498.5799	 0.0362
1500.5086	 0.0384
1502.4373	 0.0410
1504.3660	 0.0435
1506.2946	 0.0473
1508.2233	 0.0494
1510.1520	 0.0486
1512.0807	 0.0471
1514.0093	 0.0452
1515.9380	 0.0426
1517.8667	 0.0381
1519.7954	 0.0350
1521.7240	 0.0307
1523.6527	 0.0270
1525.5814	 0.0251
1527.5101	 0.0231
1529.4387	 0.0216
1531.3674	 0.0209
1533.2961	 0.0205
1535.2248	 0.0197
1537.1534	 0.0195
1539.0821	 0.0202
1541.0108	 0.0204
1542.9395	 0.0197
1544.8681	 0.0191
1546.7968	 0.0186
1548.7255	 0.0186
1550.6542	 0.0187
1552.5828	 0.0188
1554.5115	 0.0192
1556.4402	 0.0197
1558.3688	 0.0208
1560.2975	 0.0205
1562.2262	 0.0199
1564.1549	 0.0202
1566.0835	 0.0208
1568.0122	 0.0216
1569.9409	 0.0228
1571.8696	 0.0236
1573.7982	 0.0245
1575.7269	 0.0264
1577.6556	 0.0282
1579.5843	 0.0293
1581.5129	 0.0308
1583.4416	 0.0325
1585.3703	 0.0341
1587.2990	 0.0358
1589.2276	 0.0374
1591.1563	 0.0389
1593.0850	 0.0401
1595.0137	 0.0412
1596.9423	 0.0420
1598.8710	 0.0428
1600.7997	 0.0436
1602.7284	 0.0443
1604.6570	 0.0448
1606.5857	 0.0452
1608.5144	 0.0455
1610.4431	 0.0457
1612.3717	 0.0458
1614.3004	 0.0461
1616.2291	 0.0467
1618.1578	 0.0466
1620.0864	 0.0465
1622.0151	 0.0469
1623.9438	 0.0472
1625.8724	 0.0471
1627.8011	 0.0472
1629.7298	 0.0471
1631.6585	 0.0471
1633.5871	 0.0476
1635.5158	 0.0480
1637.4445	 0.0474
1639.3732	 0.0466
1641.3018	 0.0462
1643.2305	 0.0460
1645.1592	 0.0462
1647.0879	 0.0462
1649.0165	 0.0453
1650.9452	 0.0452
1652.8739	 0.0455
1654.8026	 0.0440
1656.7312	 0.0429
1658.6599	 0.0420
1660.5886	 0.0413
1662.5173	 0.0402
1664.4459	 0.0385
1666.3746	 0.0374
1668.3033	 0.0365
1670.2320	 0.0348
1672.1606	 0.0331
1674.0893	 0.0319
1676.0180	 0.0301
1677.9467	 0.0287
1679.8753	 0.0278
1681.8040	 0.0273
1683.7327	 0.0268
1685.6614	 0.0248
1687.5900	 0.0237
1689.5187	 0.0229
1691.4474	 0.0219
1693.3760	 0.0214
1695.3047	 0.0213
1697.2334	 0.0211
1699.1621	 0.0208
1701.0907	 0.0201
1703.0194	 0.0196
1704.9481	 0.0197
1706.8768	 0.0195
1708.8054	 0.0193
1710.7341	 0.0194
1712.6628	 0.0198
1714.5915	 0.0206
1716.5201	 0.0214
1718.4488	 0.0214
1720.3775	 0.0211
1722.3062	 0.0212
1724.2348	 0.0215
1726.1635	 0.0217
1728.0922	 0.0221
1730.0209	 0.0226
1731.9495	 0.0230
1733.8782	 0.0234
1735.8069	 0.0230
1737.7356	 0.0227
1739.6642	 0.0225
1741.5929	 0.0220
1743.5216	 0.0215
1745.4503	 0.0208
1747.3789	 0.0201
1749.3076	 0.0190
1751.2363	 0.0173
1753.1650	 0.0156
1755.0936	 0.0145
1757.0223	 0.0134
1758.9510	 0.0123
1760.8797	 0.0115
1762.8083	 0.0105
1764.7370	 0.0097
1766.6657	 0.0092
1768.5943	 0.0088
1770.5230	 0.0087
1772.4517	 0.0084
1774.3804	 0.0077
1776.3090	 0.0071
1778.2377	 0.0069
1780.1664	 0.0067
1782.0951	 0.0065
1784.0237	 0.0062
1785.9524	 0.0060
1787.8811	 0.0059
1789.8098	 0.0060
1791.7384	 0.0062
1793.6671	 0.0059
1795.5958	 0.0056
1797.5245	 0.0055
1799.4531	 0.0055
1801.3818	 0.0055
1803.3105	 0.0052
1805.2392	 0.0051
1807.1678	 0.0051
1809.0965	 0.0051
1811.0252	 0.0051
1812.9539	 0.0049
1814.8825	 0.0047
1816.8112	 0.0047
1818.7399	 0.0047
1820.6686	 0.0046
1822.5972	 0.0047
1824.5259	 0.0048
1826.4546	 0.0048
1828.3833	 0.0049
1830.3119	 0.0049
1832.2406	 0.0046
1834.1693	 0.0045
1836.0979	 0.0045
1838.0266	 0.0045
1839.9553	 0.0044
1841.8840	 0.0045
1843.8126	 0.0048
1845.7413	 0.0047
1847.6700	 0.0045
1849.5987	 0.0044
1851.5273	 0.0043
1853.4560	 0.0043
1855.3847	 0.0042
1857.3134	 0.0043
1859.2420	 0.0043
1861.1707	 0.0043
1863.0994	 0.0043
1865.0281	 0.0044
1866.9567	 0.0047
1868.8854	 0.0048
1870.8141	 0.0045
1872.7428	 0.0043
1874.6714	 0.0042
1876.6001	 0.0042
1878.5288	 0.0042
1880.4575	 0.0042
1882.3861	 0.0042
1884.3148	 0.0043
1886.2435	 0.0043
1888.1722	 0.0044
1890.1008	 0.0044
1892.0295	 0.0043
1893.9582	 0.0043
1895.8869	 0.0044
1897.8155	 0.0043
1899.7442	 0.0043
1901.6729	 0.0043
1903.6016	 0.0043
1905.5302	 0.0043
1907.4589	 0.0043
1909.3876	 0.0044
1911.3162	 0.0043
1913.2449	 0.0042
1915.1736	 0.0043
1917.1023	 0.0044
1919.0309	 0.0044
1920.9596	 0.0044
1922.8883	 0.0045
1924.8170	 0.0044
1926.7456	 0.0043
1928.6743	 0.0043
1930.6030	 0.0043
1932.5317	 0.0043
1934.4603	 0.0043
1936.3890	 0.0043
1938.3177	 0.0043
1940.2464	 0.0044
1942.1750	 0.0046
1944.1037	 0.0046
1946.0324	 0.0045
1947.9611	 0.0044
1949.8897	 0.0044
1951.8184	 0.0045
1953.7471	 0.0045
1955.6758	 0.0045
1957.6044	 0.0045
1959.5331	 0.0045
1961.4618	 0.0045
1963.3905	 0.0046
1965.3191	 0.0046
1967.2478	 0.0047
1969.1765	 0.0047
1971.1052	 0.0046
1973.0338	 0.0046
1974.9625	 0.0047
1976.8912	 0.0047
1978.8198	 0.0047
1980.7485	 0.0047
1982.6772	 0.0047
1984.6059	 0.0048
1986.5345	 0.0048
1988.4632	 0.0049
1990.3919	 0.0049
1992.3206	 0.0050
1994.2492	 0.0049
1996.1779	 0.0048
1998.1066	 0.0049
2000.0353	 0.0049
2001.9639	 0.0049
2003.8926	 0.0049
2005.8213	 0.0050
2007.7500	 0.0050
2009.6786	 0.0050
2011.6073	 0.0050
2013.5360	 0.0051
2015.4647	 0.0052
2017.3933	 0.0052
2019.3220	 0.0052
2021.2507	 0.0052
2023.1794	 0.0052
2025.1080	 0.0052
2027.0367	 0.0052
2028.9654	 0.0052
2030.8941	 0.0053
2032.8227	 0.0053
2034.7514	 0.0054
2036.6801	 0.0054
2038.6088	 0.0054
2040.5374	 0.0055
2042.4661	 0.0055
2044.3948	 0.0055
2046.3234	 0.0055
2048.2521	 0.0055
2050.1808	 0.0055
2052.1095	 0.0055
2054.0381	 0.0055
2055.9668	 0.0055
2057.8955	 0.0055
2059.8242	 0.0056
2061.7528	 0.0056
2063.6815	 0.0056
2065.6102	 0.0056
2067.5389	 0.0056
2069.4675	 0.0056
2071.3962	 0.0056
2073.3249	 0.0056
2075.2536	 0.0055
2077.1822	 0.0056
2079.1109	 0.0055
2081.0396	 0.0055
2082.9683	 0.0055
2084.8969	 0.0055
2086.8256	 0.0055
2088.7543	 0.0056
2090.6830	 0.0055
2092.6116	 0.0055
2094.5403	 0.0056
2096.4690	 0.0056
2098.3977	 0.0056
2100.3263	 0.0056
2102.2550	 0.0056
2104.1837	 0.0056
2106.1124	 0.0055
2108.0410	 0.0055
2109.9697	 0.0055
2111.8984	 0.0055
2113.8271	 0.0056
2115.7557	 0.0056
2117.6844	 0.0056
2119.6131	 0.0056
2121.5417	 0.0056
2123.4704	 0.0056
2125.3991	 0.0056
2127.3278	 0.0056
2129.2564	 0.0056
2131.1851	 0.0055
2133.1138	 0.0055
2135.0425	 0.0055
2136.9711	 0.0055
2138.8998	 0.0055
2140.8285	 0.0055
2142.7572	 0.0055
2144.6858	 0.0055
2146.6145	 0.0055
2148.5432	 0.0054
2150.4719	 0.0054
2152.4005	 0.0054
2154.3292	 0.0054
2156.2579	 0.0054
2158.1866	 0.0053
2160.1152	 0.0053
2162.0439	 0.0053
2163.9726	 0.0053
2165.9013	 0.0052
2167.8299	 0.0052
2169.7586	 0.0052
2171.6873	 0.0052
2173.6160	 0.0052
2175.5446	 0.0052
2177.4733	 0.0052
2179.4020	 0.0051
2181.3307	 0.0051
2183.2593	 0.0051
2185.1880	 0.0051
2187.1167	 0.0050
2189.0453	 0.0050
2190.9740	 0.0050
2192.9027	 0.0050
2194.8314	 0.0049
2196.7600	 0.0049
2198.6887	 0.0049
2200.6174	 0.0049
2202.5461	 0.0049
2204.4747	 0.0048
2206.4034	 0.0048
2208.3321	 0.0048
2210.2608	 0.0048
2212.1894	 0.0048
2214.1181	 0.0047
2216.0468	 0.0047
2217.9755	 0.0047
2219.9041	 0.0047
2221.8328	 0.0047
2223.7615	 0.0047
2225.6902	 0.0047
2227.6188	 0.0046
2229.5475	 0.0046
2231.4762	 0.0046
2233.4049	 0.0046
2235.3335	 0.0046
2237.2622	 0.0046
2239.1909	 0.0046
2241.1196	 0.0046
2243.0482	 0.0045
2244.9769	 0.0046
2246.9056	 0.0045
2248.8343	 0.0045
2250.7629	 0.0045
2252.6916	 0.0045
2254.6203	 0.0045
2256.5490	 0.0045
2258.4776	 0.0045
2260.4063	 0.0045
2262.3350	 0.0045
2264.2636	 0.0046
2266.1923	 0.0046
2268.1210	 0.0046
2270.0497	 0.0045
2271.9783	 0.0045
2273.9070	 0.0045
2275.8357	 0.0045
2277.7644	 0.0045
2279.6930	 0.0044
2281.6217	 0.0044
2283.5504	 0.0044
2285.4791	 0.0044
2287.4077	 0.0045
2289.3364	 0.0046
2291.2651	 0.0047
2293.1938	 0.0048
2295.1224	 0.0049
2297.0511	 0.0051
2298.9798	 0.0052
2300.9085	 0.0054
2302.8371	 0.0055
2304.7658	 0.0058
2306.6945	 0.0060
2308.6232	 0.0064
2310.5518	 0.0067
2312.4805	 0.0069
2314.4092	 0.0071
2316.3379	 0.0073
2318.2665	 0.0078
2320.1952	 0.0084
2322.1239	 0.0088
2324.0526	 0.0091
2325.9812	 0.0093
2327.9099	 0.0097
2329.8386	 0.0100
2331.7672	 0.0101
2333.6959	 0.0101
2335.6246	 0.0102
2337.5533	 0.0104
2339.4819	 0.0106
2341.4106	 0.0108
2343.3393	 0.0107
2345.2680	 0.0102
2347.1966	 0.0090
2349.1253	 0.0085
2351.0540	 0.0094
2352.9827	 0.0107
2354.9113	 0.0119
2356.8400	 0.0127
2358.7687	 0.0131
2360.6974	 0.0131
2362.6260	 0.0129
2364.5547	 0.0125
2366.4834	 0.0119
2368.4121	 0.0110
2370.3407	 0.0101
2372.2694	 0.0091
2374.1981	 0.0083
2376.1268	 0.0075
2378.0554	 0.0067
2379.9841	 0.0059
2381.9128	 0.0052
2383.8415	 0.0047
2385.7701	 0.0044
2387.6988	 0.0042
2389.6275	 0.0041
2391.5562	 0.0041
2393.4848	 0.0041
2395.4135	 0.0041
2397.3422	 0.0041
2399.2708	 0.0042
2401.1995	 0.0042
2403.1282	 0.0042
2405.0569	 0.0042
2406.9855	 0.0042
2408.9142	 0.0042
2410.8429	 0.0042
2412.7716	 0.0043
2414.7002	 0.0043
2416.6289	 0.0043
2418.5576	 0.0043
2420.4863	 0.0043
2422.4149	 0.0043
2424.3436	 0.0043
2426.2723	 0.0044
2428.2010	 0.0044
2430.1296	 0.0044
2432.0583	 0.0044
2433.9870	 0.0045
2435.9157	 0.0045
2437.8443	 0.0045
2439.7730	 0.0045
2441.7017	 0.0045
2443.6304	 0.0045
2445.5590	 0.0046
2447.4877	 0.0046
2449.4164	 0.0046
2451.3451	 0.0046
2453.2737	 0.0046
2455.2024	 0.0046
2457.1311	 0.0046
2459.0598	 0.0047
2460.9884	 0.0047
2462.9171	 0.0047
2464.8458	 0.0047
2466.7745	 0.0047
2468.7031	 0.0047
2470.6318	 0.0048
2472.5605	 0.0048
2474.4891	 0.0048
2476.4178	 0.0048
2478.3465	 0.0049
2480.2752	 0.0049
2482.2038	 0.0049
2484.1325	 0.0049
2486.0612	 0.0049
2487.9899	 0.0050
2489.9185	 0.0050
2491.8472	 0.0050
2493.7759	 0.0050
2495.7046	 0.0051
2497.6332	 0.0051
2499.5619	 0.0051
2501.4906	 0.0051
2503.4193	 0.0051
2505.3479	 0.0051
2507.2766	 0.0052
2509.2053	 0.0052
2511.1340	 0.0052
2513.0626	 0.0052
2514.9913	 0.0053
2516.9200	 0.0053
2518.8487	 0.0053
2520.7773	 0.0053
2522.7060	 0.0053
2524.6347	 0.0053
2526.5634	 0.0053
2528.4920	 0.0054
2530.4207	 0.0054
2532.3494	 0.0054
2534.2781	 0.0055
2536.2067	 0.0055
2538.1354	 0.0055
2540.0641	 0.0055
2541.9927	 0.0055
2543.9214	 0.0056
2545.8501	 0.0056
2547.7788	 0.0056
2549.7074	 0.0056
2551.6361	 0.0056
2553.5648	 0.0056
2555.4935	 0.0056
2557.4221	 0.0056
2559.3508	 0.0057
2561.2795	 0.0057
2563.2082	 0.0057
2565.1368	 0.0058
2567.0655	 0.0058
2568.9942	 0.0058
2570.9229	 0.0058
2572.8515	 0.0058
2574.7802	 0.0059
2576.7089	 0.0059
2578.6376	 0.0059
2580.5662	 0.0059
2582.4949	 0.0060
2584.4236	 0.0060
2586.3523	 0.0060
2588.2809	 0.0061
2590.2096	 0.0061
2592.1383	 0.0061
2594.0670	 0.0061
2595.9956	 0.0062
2597.9243	 0.0062
2599.8530	 0.0062
2601.7817	 0.0062
2603.7103	 0.0063
2605.6390	 0.0063
2607.5677	 0.0063
2609.4964	 0.0063
2611.4250	 0.0064
2613.3537	 0.0064
2615.2824	 0.0064
2617.2110	 0.0065
2619.1397	 0.0065
2621.0684	 0.0066
2622.9971	 0.0066
2624.9257	 0.0066
2626.8544	 0.0067
2628.7831	 0.0067
2630.7118	 0.0068
2632.6404	 0.0068
2634.5691	 0.0068
2636.4978	 0.0069
2638.4265	 0.0069
2640.3551	 0.0070
2642.2838	 0.0070
2644.2125	 0.0071
2646.1412	 0.0071
2648.0698	 0.0071
2649.9985	 0.0072
2651.9272	 0.0072
2653.8559	 0.0073
2655.7845	 0.0073
2657.7132	 0.0073
2659.6419	 0.0073
2661.5706	 0.0074
2663.4992	 0.0075
2665.4279	 0.0075
2667.3566	 0.0075
2669.2853	 0.0076
2671.2139	 0.0076
2673.1426	 0.0077
2675.0713	 0.0078
2677.0000	 0.0078
2678.9286	 0.0079
2680.8573	 0.0079
2682.7860	 0.0080
2684.7146	 0.0080
2686.6433	 0.0081
2688.5720	 0.0081
2690.5007	 0.0081
2692.4293	 0.0082
2694.3580	 0.0083
2696.2867	 0.0083
2698.2154	 0.0084
2700.1440	 0.0084
2702.0727	 0.0085
2704.0014	 0.0085
2705.9301	 0.0085
2707.8587	 0.0086
2709.7874	 0.0087
2711.7161	 0.0087
2713.6448	 0.0088
2715.5734	 0.0088
2717.5021	 0.0089
2719.4308	 0.0089
2721.3595	 0.0089
2723.2881	 0.0090
2725.2168	 0.0091
2727.1455	 0.0091
2729.0742	 0.0092
2731.0028	 0.0092
2732.9315	 0.0093
2734.8602	 0.0093
2736.7889	 0.0093
2738.7175	 0.0094
2740.6462	 0.0094
2742.5749	 0.0094
2744.5036	 0.0095
2746.4322	 0.0096
2748.3609	 0.0096
2750.2896	 0.0096
2752.2182	 0.0096
2754.1469	 0.0097
