DATATYPE	 IR Spectrum
XYUNITS	 Wavenumber;Absorbance
DECIMALSYMBOL	 .
599.8177	 0.1246
601.7464	 0.1233
603.6751	 0.1228
605.6037	 0.1225
607.5324	 0.1217
609.4611	 0.1207
611.3898	 0.1202
613.3184	 0.1195
615.2471	 0.1187
617.1758	 0.1184
619.1045	 0.1175
621.0331	 0.1158
622.9618	 0.1141
624.8905	 0.1131
626.8192	 0.1119
628.7478	 0.1104
630.6765	 0.1097
632.6052	 0.1093
634.5339	 0.1084
636.4625	 0.1073
638.3912	 0.1067
640.3199	 0.1058
642.2485	 0.1048
644.1772	 0.1041
646.1059	 0.1035
648.0346	 0.1028
649.9632	 0.1021
651.8919	 0.1017
653.8206	 0.1013
655.7493	 0.1010
657.6779	 0.1010
659.6066	 0.1006
661.5353	 0.0999
663.4640	 0.0990
665.3926	 0.0988
667.3213	 0.1001
669.2500	 0.0982
671.1787	 0.0946
673.1073	 0.0923
675.0360	 0.0906
676.9647	 0.0887
678.8934	 0.0871
680.8220	 0.0856
682.7507	 0.0844
684.6794	 0.0833
686.6081	 0.0824
688.5367	 0.0816
690.4654	 0.0807
692.3941	 0.0798
694.3228	 0.0791
696.2514	 0.0785
698.1801	 0.0779
700.1088	 0.0772
702.0375	 0.0765
703.9661	 0.0759
705.8948	 0.0753
707.8235	 0.0746
709.7521	 0.0739
711.6808	 0.0732
713.6095	 0.0726
715.5382	 0.0721
717.4668	 0.0716
719.3955	 0.0712
721.3242	 0.0704
723.2529	 0.0696
725.1815	 0.0691
727.1102	 0.0685
729.0389	 0.0677
730.9676	 0.0671
732.8962	 0.0667
734.8249	 0.0662
736.7536	 0.0657
738.6823	 0.0651
740.6109	 0.0647
742.5396	 0.0643
744.4683	 0.0637
746.3970	 0.0631
748.3256	 0.0625
750.2543	 0.0620
752.1830	 0.0616
754.1117	 0.0612
756.0403	 0.0608
757.9690	 0.0604
759.8977	 0.0600
761.8264	 0.0596
763.7550	 0.0593
765.6837	 0.0589
767.6124	 0.0585
769.5411	 0.0580
771.4697	 0.0576
773.3984	 0.0571
775.3271	 0.0567
777.2557	 0.0562
779.1844	 0.0558
781.1131	 0.0555
783.0418	 0.0551
784.9704	 0.0547
786.8991	 0.0544
788.8278	 0.0541
790.7565	 0.0540
792.6851	 0.0540
794.6138	 0.0541
796.5425	 0.0542
798.4712	 0.0544
800.3998	 0.0545
802.3285	 0.0546
804.2572	 0.0547
806.1859	 0.0547
808.1145	 0.0546
810.0432	 0.0543
811.9719	 0.0538
813.9006	 0.0531
815.8292	 0.0521
817.7579	 0.0511
819.6866	 0.0500
821.6153	 0.0489
823.5439	 0.0479
825.4726	 0.0471
827.4013	 0.0465
829.3300	 0.0459
831.2586	 0.0454
833.1873	 0.0449
835.1160	 0.0445
837.0447	 0.0441
838.9733	 0.0437
840.9020	 0.0434
842.8307	 0.0433
844.7594	 0.0434
846.6880	 0.0436
848.6167	 0.0440
850.5454	 0.0444
852.4740	 0.0449
854.4027	 0.0454
856.3314	 0.0458
858.2601	 0.0462
860.1887	 0.0464
862.1174	 0.0465
864.0461	 0.0467
865.9748	 0.0469
867.9034	 0.0470
869.8321	 0.0471
871.7608	 0.0472
873.6895	 0.0472
875.6181	 0.0473
877.5468	 0.0474
879.4755	 0.0476
881.4042	 0.0479
883.3328	 0.0483
885.2615	 0.0489
887.1902	 0.0497
889.1189	 0.0505
891.0475	 0.0513
892.9762	 0.0520
894.9049	 0.0525
896.8336	 0.0526
898.7622	 0.0523
900.6909	 0.0515
902.6196	 0.0505
904.5483	 0.0493
906.4769	 0.0481
908.4056	 0.0470
910.3343	 0.0460
912.2630	 0.0453
914.1916	 0.0448
916.1203	 0.0446
918.0490	 0.0446
919.9776	 0.0448
921.9063	 0.0451
923.8350	 0.0455
925.7637	 0.0459
927.6923	 0.0465
929.6210	 0.0471
931.5497	 0.0477
933.4784	 0.0485
935.4070	 0.0493
937.3357	 0.0500
939.2644	 0.0509
941.1931	 0.0518
943.1217	 0.0528
945.0504	 0.0539
946.9791	 0.0551
948.9078	 0.0565
950.8364	 0.0580
952.7651	 0.0595
954.6938	 0.0612
956.6225	 0.0629
958.5511	 0.0646
960.4798	 0.0663
962.4085	 0.0680
964.3372	 0.0695
966.2658	 0.0711
968.1945	 0.0727
970.1232	 0.0745
972.0519	 0.0766
973.9805	 0.0792
975.9092	 0.0823
977.8379	 0.0860
979.7666	 0.0904
981.6952	 0.0954
983.6239	 0.1010
985.5526	 0.1067
987.4812	 0.1123
989.4099	 0.1176
991.3386	 0.1222
993.2673	 0.1260
995.1959	 0.1290
997.1246	 0.1315
999.0533	 0.1338
1000.9820	 0.1363
1002.9106	 0.1390
1004.8393	 0.1423
1006.7680	 0.1462
1008.6967	 0.1509
1010.6253	 0.1563
1012.5540	 0.1619
1014.4827	 0.1675
1016.4114	 0.1725
1018.3400	 0.1766
1020.2687	 0.1797
1022.1974	 0.1815
1024.1261	 0.1823
1026.0547	 0.1820
1027.9834	 0.1808
1029.9121	 0.1788
1031.8408	 0.1762
1033.7694	 0.1731
1035.6981	 0.1696
1037.6268	 0.1661
1039.5555	 0.1631
1041.4841	 0.1609
1043.4128	 0.1594
1045.3415	 0.1584
1047.2702	 0.1576
1049.1988	 0.1569
1051.1275	 0.1559
1053.0562	 0.1546
1054.9849	 0.1530
1056.9135	 0.1510
1058.8422	 0.1487
1060.7709	 0.1460
1062.6995	 0.1427
1064.6282	 0.1393
1066.5569	 0.1359
1068.4856	 0.1326
1070.4142	 0.1291
1072.3429	 0.1256
1074.2716	 0.1220
1076.2003	 0.1183
1078.1289	 0.1148
1080.0576	 0.1116
1081.9863	 0.1088
1083.9150	 0.1067
1085.8436	 0.1049
1087.7723	 0.1033
1089.7010	 0.1017
1091.6297	 0.1001
1093.5583	 0.0985
1095.4870	 0.0968
1097.4157	 0.0950
1099.3444	 0.0932
1101.2730	 0.0915
1103.2017	 0.0898
1105.1304	 0.0883
1107.0591	 0.0868
1108.9877	 0.0853
1110.9164	 0.0837
1112.8451	 0.0820
1114.7738	 0.0801
1116.7024	 0.0782
1118.6311	 0.0765
1120.5598	 0.0750
1122.4885	 0.0735
1124.4171	 0.0720
1126.3458	 0.0704
1128.2745	 0.0687
1130.2031	 0.0671
1132.1318	 0.0658
1134.0605	 0.0648
1135.9892	 0.0641
1137.9178	 0.0636
1139.8465	 0.0633
1141.7752	 0.0631
1143.7039	 0.0628
1145.6325	 0.0626
1147.5612	 0.0625
1149.4899	 0.0626
1151.4186	 0.0627
1153.3472	 0.0627
1155.2759	 0.0624
1157.2046	 0.0615
1159.1333	 0.0598
1161.0619	 0.0573
1162.9906	 0.0542
1164.9193	 0.0507
1166.8480	 0.0470
1168.7766	 0.0434
1170.7053	 0.0401
1172.6340	 0.0374
1174.5627	 0.0353
1176.4913	 0.0336
1178.4200	 0.0323
1180.3487	 0.0313
1182.2774	 0.0307
1184.2060	 0.0304
1186.1347	 0.0304
1188.0634	 0.0307
1189.9921	 0.0311
1191.9207	 0.0319
1193.8494	 0.0328
1195.7781	 0.0338
1197.7068	 0.0349
1199.6354	 0.0362
1201.5641	 0.0375
1203.4928	 0.0387
1205.4214	 0.0399
1207.3501	 0.0410
1209.2788	 0.0420
1211.2075	 0.0429
1213.1361	 0.0437
1215.0648	 0.0444
1216.9935	 0.0449
1218.9222	 0.0455
1220.8508	 0.0460
1222.7795	 0.0465
1224.7082	 0.0469
1226.6369	 0.0473
1228.5655	 0.0475
1230.4942	 0.0475
1232.4229	 0.0474
1234.3516	 0.0472
1236.2802	 0.0471
1238.2089	 0.0469
1240.1376	 0.0469
1242.0663	 0.0471
1243.9949	 0.0474
1245.9236	 0.0478
1247.8523	 0.0484
1249.7810	 0.0492
1251.7096	 0.0500
1253.6383	 0.0510
1255.5670	 0.0521
1257.4957	 0.0531
1259.4243	 0.0540
1261.3530	 0.0546
1263.2817	 0.0550
1265.2104	 0.0550
1267.1390	 0.0545
1269.0677	 0.0537
1270.9964	 0.0524
1272.9250	 0.0507
1274.8537	 0.0488
1276.7824	 0.0467
1278.7111	 0.0446
1280.6397	 0.0426
1282.5684	 0.0408
1284.4971	 0.0392
1286.4258	 0.0378
1288.3544	 0.0367
1290.2831	 0.0359
1292.2118	 0.0353
1294.1405	 0.0349
1296.0691	 0.0347
1297.9978	 0.0347
1299.9265	 0.0347
1301.8552	 0.0348
1303.7838	 0.0350
1305.7125	 0.0352
1307.6412	 0.0355
1309.5699	 0.0359
1311.4985	 0.0363
1313.4272	 0.0366
1315.3559	 0.0368
1317.2846	 0.0369
1319.2132	 0.0369
1321.1419	 0.0366
1323.0706	 0.0364
1324.9993	 0.0362
1326.9279	 0.0361
1328.8566	 0.0360
1330.7853	 0.0359
1332.7140	 0.0358
1334.6426	 0.0357
1336.5713	 0.0357
1338.5000	 0.0357
1340.4286	 0.0353
1342.3573	 0.0348
1344.2860	 0.0346
1346.2147	 0.0345
1348.1433	 0.0346
1350.0720	 0.0348
1352.0007	 0.0350
1353.9294	 0.0354
1355.8580	 0.0358
1357.7867	 0.0363
1359.7154	 0.0370
1361.6441	 0.0377
1363.5727	 0.0383
1365.5014	 0.0386
1367.4301	 0.0390
1369.3588	 0.0392
1371.2874	 0.0392
1373.2161	 0.0390
1375.1448	 0.0384
1377.0735	 0.0376
1379.0021	 0.0366
1380.9308	 0.0355
1382.8595	 0.0344
1384.7882	 0.0335
1386.7168	 0.0326
1388.6455	 0.0316
1390.5742	 0.0309
1392.5029	 0.0306
1394.4315	 0.0306
1396.3602	 0.0306
1398.2889	 0.0307
1400.2176	 0.0307
1402.1462	 0.0309
1404.0749	 0.0314
1406.0036	 0.0320
1407.9323	 0.0326
1409.8609	 0.0334
1411.7896	 0.0343
1413.7183	 0.0351
1415.6469	 0.0360
1417.5756	 0.0370
1419.5043	 0.0374
1421.4330	 0.0374
1423.3616	 0.0372
1425.2903	 0.0366
1427.2190	 0.0359
1429.1477	 0.0351
1431.0763	 0.0341
1433.0050	 0.0331
1434.9337	 0.0323
1436.8624	 0.0313
1438.7910	 0.0303
1440.7197	 0.0300
1442.6484	 0.0301
1444.5771	 0.0307
1446.5057	 0.0315
1448.4344	 0.0324
1450.3631	 0.0329
1452.2918	 0.0331
1454.2204	 0.0331
1456.1491	 0.0331
1458.0778	 0.0325
1460.0065	 0.0318
1461.9351	 0.0316
1463.8638	 0.0314
1465.7925	 0.0305
1467.7212	 0.0291
1469.6498	 0.0278
1471.5785	 0.0265
1473.5072	 0.0244
1475.4359	 0.0227
1477.3645	 0.0213
1479.2932	 0.0204
1481.2219	 0.0199
1483.1505	 0.0195
1485.0792	 0.0194
1487.0079	 0.0196
1488.9366	 0.0201
1490.8652	 0.0204
1492.7939	 0.0206
1494.7226	 0.0214
1496.6513	 0.0230
1498.5799	 0.0247
1500.5086	 0.0263
1502.4373	 0.0280
1504.3660	 0.0297
1506.2946	 0.0322
1508.2233	 0.0336
1510.1520	 0.0330
1512.0807	 0.0317
1514.0093	 0.0303
1515.9380	 0.0282
1517.8667	 0.0249
1519.7954	 0.0226
1521.7240	 0.0196
1523.6527	 0.0172
1525.5814	 0.0159
1527.5101	 0.0145
1529.4387	 0.0134
1531.3674	 0.0128
1533.2961	 0.0124
1535.2248	 0.0118
1537.1534	 0.0116
1539.0821	 0.0120
1541.0108	 0.0121
1542.9395	 0.0119
1544.8681	 0.0116
1546.7968	 0.0113
1548.7255	 0.0113
1550.6542	 0.0114
1552.5828	 0.0115
1554.5115	 0.0117
1556.4402	 0.0121
1558.3688	 0.0127
1560.2975	 0.0125
1562.2262	 0.0123
1564.1549	 0.0125
1566.0835	 0.0128
1568.0122	 0.0133
1569.9409	 0.0139
1571.8696	 0.0143
1573.7982	 0.0149
1575.7269	 0.0159
1577.6556	 0.0170
1579.5843	 0.0176
1581.5129	 0.0184
1583.4416	 0.0192
1585.3703	 0.0200
1587.2990	 0.0208
1589.2276	 0.0214
1591.1563	 0.0219
1593.0850	 0.0222
1595.0137	 0.0224
1596.9423	 0.0226
1598.8710	 0.0227
1600.7997	 0.0229
1602.7284	 0.0231
1604.6570	 0.0232
1606.5857	 0.0232
1608.5144	 0.0230
1610.4431	 0.0228
1612.3717	 0.0225
1614.3004	 0.0225
1616.2291	 0.0226
1618.1578	 0.0225
1620.0864	 0.0225
1622.0151	 0.0227
1623.9438	 0.0228
1625.8724	 0.0228
1627.8011	 0.0229
1629.7298	 0.0230
1631.6585	 0.0230
1633.5871	 0.0233
1635.5158	 0.0237
1637.4445	 0.0236
1639.3732	 0.0233
1641.3018	 0.0231
1643.2305	 0.0231
1645.1592	 0.0232
1647.0879	 0.0234
1649.0165	 0.0230
1650.9452	 0.0229
1652.8739	 0.0232
1654.8026	 0.0227
1656.7312	 0.0222
1658.6599	 0.0219
1660.5886	 0.0216
1662.5173	 0.0212
1664.4459	 0.0204
1666.3746	 0.0198
1668.3033	 0.0194
1670.2320	 0.0185
1672.1606	 0.0176
1674.0893	 0.0170
1676.0180	 0.0161
1677.9467	 0.0155
1679.8753	 0.0151
1681.8040	 0.0149
1683.7327	 0.0146
1685.6614	 0.0138
1687.5900	 0.0133
1689.5187	 0.0130
1691.4474	 0.0125
1693.3760	 0.0123
1695.3047	 0.0124
1697.2334	 0.0124
1699.1621	 0.0124
1701.0907	 0.0122
1703.0194	 0.0120
1704.9481	 0.0121
1706.8768	 0.0121
1708.8054	 0.0121
1710.7341	 0.0123
1712.6628	 0.0127
1714.5915	 0.0132
1716.5201	 0.0137
1718.4488	 0.0139
1720.3775	 0.0138
1722.3062	 0.0138
1724.2348	 0.0139
1726.1635	 0.0140
1728.0922	 0.0142
1730.0209	 0.0144
1731.9495	 0.0146
1733.8782	 0.0146
1735.8069	 0.0141
1737.7356	 0.0139
1739.6642	 0.0137
1741.5929	 0.0135
1743.5216	 0.0132
1745.4503	 0.0128
1747.3789	 0.0125
1749.3076	 0.0122
1751.2363	 0.0115
1753.1650	 0.0106
1755.0936	 0.0101
1757.0223	 0.0097
1758.9510	 0.0092
1760.8797	 0.0088
1762.8083	 0.0084
1764.7370	 0.0080
1766.6657	 0.0078
1768.5943	 0.0077
1770.5230	 0.0076
1772.4517	 0.0075
1774.3804	 0.0072
1776.3090	 0.0069
1778.2377	 0.0068
1780.1664	 0.0068
1782.0951	 0.0067
1784.0237	 0.0066
1785.9524	 0.0065
1787.8811	 0.0064
1789.8098	 0.0066
1791.7384	 0.0067
1793.6671	 0.0066
1795.5958	 0.0065
1797.5245	 0.0064
1799.4531	 0.0064
1801.3818	 0.0064
1803.3105	 0.0063
1805.2392	 0.0062
1807.1678	 0.0062
1809.0965	 0.0062
1811.0252	 0.0063
1812.9539	 0.0062
1814.8825	 0.0061
1816.8112	 0.0061
1818.7399	 0.0061
1820.6686	 0.0061
1822.5972	 0.0062
1824.5259	 0.0063
1826.4546	 0.0062
1828.3833	 0.0063
1830.3119	 0.0064
1832.2406	 0.0062
1834.1693	 0.0061
1836.0979	 0.0061
1838.0266	 0.0061
1839.9553	 0.0061
1841.8840	 0.0062
1843.8126	 0.0064
1845.7413	 0.0063
1847.6700	 0.0062
1849.5987	 0.0061
1851.5273	 0.0060
1853.4560	 0.0060
1855.3847	 0.0061
1857.3134	 0.0061
1859.2420	 0.0061
1861.1707	 0.0061
1863.0994	 0.0061
1865.0281	 0.0061
1866.9567	 0.0063
1868.8854	 0.0064
1870.8141	 0.0063
1872.7428	 0.0061
1874.6714	 0.0061
1876.6001	 0.0061
1878.5288	 0.0061
1880.4575	 0.0061
1882.3861	 0.0061
1884.3148	 0.0061
1886.2435	 0.0061
1888.1722	 0.0062
1890.1008	 0.0063
1892.0295	 0.0062
1893.9582	 0.0062
1895.8869	 0.0062
1897.8155	 0.0062
1899.7442	 0.0061
1901.6729	 0.0061
1903.6016	 0.0062
1905.5302	 0.0062
1907.4589	 0.0063
1909.3876	 0.0063
1911.3162	 0.0062
1913.2449	 0.0062
1915.1736	 0.0062
1917.1023	 0.0063
1919.0309	 0.0063
1920.9596	 0.0063
1922.8883	 0.0064
1924.8170	 0.0063
1926.7456	 0.0062
1928.6743	 0.0062
1930.6030	 0.0062
1932.5317	 0.0063
1934.4603	 0.0063
1936.3890	 0.0063
1938.3177	 0.0063
1940.2464	 0.0064
1942.1750	 0.0065
1944.1037	 0.0065
1946.0324	 0.0064
1947.9611	 0.0064
1949.8897	 0.0064
1951.8184	 0.0064
1953.7471	 0.0064
1955.6758	 0.0065
1957.6044	 0.0065
1959.5331	 0.0064
1961.4618	 0.0065
1963.3905	 0.0065
1965.3191	 0.0065
1967.2478	 0.0066
1969.1765	 0.0065
1971.1052	 0.0065
1973.0338	 0.0065
1974.9625	 0.0065
1976.8912	 0.0066
1978.8198	 0.0066
1980.7485	 0.0066
1982.6772	 0.0066
1984.6059	 0.0066
1986.5345	 0.0066
1988.4632	 0.0067
1990.3919	 0.0067
1992.3206	 0.0068
1994.2492	 0.0067
1996.1779	 0.0067
1998.1066	 0.0067
2000.0353	 0.0067
2001.9639	 0.0067
2003.8926	 0.0067
2005.8213	 0.0067
2007.7500	 0.0068
2009.6786	 0.0068
2011.6073	 0.0068
2013.5360	 0.0068
2015.4647	 0.0068
2017.3933	 0.0069
2019.3220	 0.0069
2021.2507	 0.0069
2023.1794	 0.0069
2025.1080	 0.0069
2027.0367	 0.0069
2028.9654	 0.0069
2030.8941	 0.0069
2032.8227	 0.0070
2034.7514	 0.0070
2036.6801	 0.0070
2038.6088	 0.0070
2040.5374	 0.0070
2042.4661	 0.0071
2044.3948	 0.0070
2046.3234	 0.0070
2048.2521	 0.0070
2050.1808	 0.0071
2052.1095	 0.0071
2054.0381	 0.0070
2055.9668	 0.0070
2057.8955	 0.0071
2059.8242	 0.0071
2061.7528	 0.0071
2063.6815	 0.0071
2065.6102	 0.0071
2067.5389	 0.0071
2069.4675	 0.0071
2071.3962	 0.0070
2073.3249	 0.0070
2075.2536	 0.0070
2077.1822	 0.0070
2079.1109	 0.0070
2081.0396	 0.0070
2082.9683	 0.0070
2084.8969	 0.0070
2086.8256	 0.0070
2088.7543	 0.0070
2090.6830	 0.0070
2092.6116	 0.0070
2094.5403	 0.0070
2096.4690	 0.0070
2098.3977	 0.0070
2100.3263	 0.0070
2102.2550	 0.0070
2104.1837	 0.0070
2106.1124	 0.0070
2108.0410	 0.0070
2109.9697	 0.0071
2111.8984	 0.0070
2113.8271	 0.0070
2115.7557	 0.0071
2117.6844	 0.0071
2119.6131	 0.0071
2121.5417	 0.0070
2123.4704	 0.0070
2125.3991	 0.0070
2127.3278	 0.0070
2129.2564	 0.0070
2131.1851	 0.0070
2133.1138	 0.0070
2135.0425	 0.0070
2136.9711	 0.0070
2138.8998	 0.0070
2140.8285	 0.0070
2142.7572	 0.0070
2144.6858	 0.0070
2146.6145	 0.0070
2148.5432	 0.0070
2150.4719	 0.0070
2152.4005	 0.0070
2154.3292	 0.0070
2156.2579	 0.0069
2158.1866	 0.0069
2160.1152	 0.0069
2162.0439	 0.0069
2163.9726	 0.0069
2165.9013	 0.0069
2167.8299	 0.0069
2169.7586	 0.0069
2171.6873	 0.0069
2173.6160	 0.0068
2175.5446	 0.0068
2177.4733	 0.0068
2179.4020	 0.0068
2181.3307	 0.0068
2183.2593	 0.0068
2185.1880	 0.0068
2187.1167	 0.0068
2189.0453	 0.0067
2190.9740	 0.0067
2192.9027	 0.0068
2194.8314	 0.0068
2196.7600	 0.0067
2198.6887	 0.0067
2200.6174	 0.0067
2202.5461	 0.0067
2204.4747	 0.0067
2206.4034	 0.0067
2208.3321	 0.0067
2210.2608	 0.0066
2212.1894	 0.0066
2214.1181	 0.0066
2216.0468	 0.0066
2217.9755	 0.0066
2219.9041	 0.0066
2221.8328	 0.0066
2223.7615	 0.0066
2225.6902	 0.0066
2227.6188	 0.0066
2229.5475	 0.0066
2231.4762	 0.0066
2233.4049	 0.0066
2235.3335	 0.0066
2237.2622	 0.0066
2239.1909	 0.0066
2241.1196	 0.0066
2243.0482	 0.0065
2244.9769	 0.0066
2246.9056	 0.0066
2248.8343	 0.0066
2250.7629	 0.0066
2252.6916	 0.0066
2254.6203	 0.0067
2256.5490	 0.0067
2258.4776	 0.0067
2260.4063	 0.0067
2262.3350	 0.0068
2264.2636	 0.0068
2266.1923	 0.0068
2268.1210	 0.0068
2270.0497	 0.0068
2271.9783	 0.0068
2273.9070	 0.0068
2275.8357	 0.0067
2277.7644	 0.0067
2279.6930	 0.0067
2281.6217	 0.0066
2283.5504	 0.0066
2285.4791	 0.0067
2287.4077	 0.0069
2289.3364	 0.0070
2291.2651	 0.0072
2293.1938	 0.0074
2295.1224	 0.0076
2297.0511	 0.0077
2298.9798	 0.0080
2300.9085	 0.0082
2302.8371	 0.0085
2304.7658	 0.0088
2306.6945	 0.0092
2308.6232	 0.0097
2310.5518	 0.0101
2312.4805	 0.0104
2314.4092	 0.0106
2316.3379	 0.0109
2318.2665	 0.0115
2320.1952	 0.0123
2322.1239	 0.0129
2324.0526	 0.0132
2325.9812	 0.0134
2327.9099	 0.0138
2329.8386	 0.0142
2331.7672	 0.0144
2333.6959	 0.0143
2335.6246	 0.0144
2337.5533	 0.0146
2339.4819	 0.0149
2341.4106	 0.0151
2343.3393	 0.0151
2345.2680	 0.0145
2347.1966	 0.0130
2349.1253	 0.0125
2351.0540	 0.0136
2352.9827	 0.0153
2354.9113	 0.0166
2356.8400	 0.0177
2358.7687	 0.0183
2360.6974	 0.0183
2362.6260	 0.0180
2364.5547	 0.0174
2366.4834	 0.0165
2368.4121	 0.0154
2370.3407	 0.0144
2372.2694	 0.0133
2374.1981	 0.0122
2376.1268	 0.0111
2378.0554	 0.0101
2379.9841	 0.0091
2381.9128	 0.0082
2383.8415	 0.0074
2385.7701	 0.0069
2387.6988	 0.0067
2389.6275	 0.0066
2391.5562	 0.0066
2393.4848	 0.0066
2395.4135	 0.0066
2397.3422	 0.0066
2399.2708	 0.0066
2401.1995	 0.0066
2403.1282	 0.0066
2405.0569	 0.0066
2406.9855	 0.0066
2408.9142	 0.0066
2410.8429	 0.0067
2412.7716	 0.0067
2414.7002	 0.0067
2416.6289	 0.0067
2418.5576	 0.0067
2420.4863	 0.0067
2422.4149	 0.0067
2424.3436	 0.0067
2426.2723	 0.0067
2428.2010	 0.0067
2430.1296	 0.0068
2432.0583	 0.0068
2433.9870	 0.0068
2435.9157	 0.0068
2437.8443	 0.0068
2439.7730	 0.0068
2441.7017	 0.0068
2443.6304	 0.0068
2445.5590	 0.0068
2447.4877	 0.0069
2449.4164	 0.0069
2451.3451	 0.0069
2453.2737	 0.0069
2455.2024	 0.0069
2457.1311	 0.0069
2459.0598	 0.0069
2460.9884	 0.0069
2462.9171	 0.0069
2464.8458	 0.0070
2466.7745	 0.0070
2468.7031	 0.0070
2470.6318	 0.0070
2472.5605	 0.0070
2474.4891	 0.0070
2476.4178	 0.0070
2478.3465	 0.0070
2480.2752	 0.0070
2482.2038	 0.0071
2484.1325	 0.0071
2486.0612	 0.0071
2487.9899	 0.0071
2489.9185	 0.0071
2491.8472	 0.0071
2493.7759	 0.0072
2495.7046	 0.0072
2497.6332	 0.0072
2499.5619	 0.0072
2501.4906	 0.0072
2503.4193	 0.0072
2505.3479	 0.0072
2507.2766	 0.0072
2509.2053	 0.0072
2511.1340	 0.0072
2513.0626	 0.0073
2514.9913	 0.0073
2516.9200	 0.0073
2518.8487	 0.0073
2520.7773	 0.0073
2522.7060	 0.0073
2524.6347	 0.0073
2526.5634	 0.0073
2528.4920	 0.0073
2530.4207	 0.0074
2532.3494	 0.0074
2534.2781	 0.0074
2536.2067	 0.0074
2538.1354	 0.0074
2540.0641	 0.0074
2541.9927	 0.0074
2543.9214	 0.0075
2545.8501	 0.0075
2547.7788	 0.0074
2549.7074	 0.0074
2551.6361	 0.0075
2553.5648	 0.0075
2555.4935	 0.0075
2557.4221	 0.0075
2559.3508	 0.0075
2561.2795	 0.0075
2563.2082	 0.0075
2565.1368	 0.0075
2567.0655	 0.0076
2568.9942	 0.0076
2570.9229	 0.0076
2572.8515	 0.0076
2574.7802	 0.0076
2576.7089	 0.0076
2578.6376	 0.0076
2580.5662	 0.0077
2582.4949	 0.0077
2584.4236	 0.0077
2586.3523	 0.0076
2588.2809	 0.0076
2590.2096	 0.0077
2592.1383	 0.0077
2594.0670	 0.0077
2595.9956	 0.0077
2597.9243	 0.0078
2599.8530	 0.0078
2601.7817	 0.0078
2603.7103	 0.0078
2605.6390	 0.0078
2607.5677	 0.0079
2609.4964	 0.0079
2611.4250	 0.0079
2613.3537	 0.0079
2615.2824	 0.0079
2617.2110	 0.0079
2619.1397	 0.0079
2621.0684	 0.0080
2622.9971	 0.0080
2624.9257	 0.0080
2626.8544	 0.0080
2628.7831	 0.0081
2630.7118	 0.0081
2632.6404	 0.0081
2634.5691	 0.0082
2636.4978	 0.0082
2638.4265	 0.0082
2640.3551	 0.0082
2642.2838	 0.0082
2644.2125	 0.0083
2646.1412	 0.0083
2648.0698	 0.0083
2649.9985	 0.0083
2651.9272	 0.0083
2653.8559	 0.0084
2655.7845	 0.0084
2657.7132	 0.0085
2659.6419	 0.0085
2661.5706	 0.0085
2663.4992	 0.0085
2665.4279	 0.0085
2667.3566	 0.0086
2669.2853	 0.0086
2671.2139	 0.0086
2673.1426	 0.0087
2675.0713	 0.0087
2677.0000	 0.0087
2678.9286	 0.0088
2680.8573	 0.0088
2682.7860	 0.0088
2684.7146	 0.0088
2686.6433	 0.0089
2688.5720	 0.0089
2690.5007	 0.0089
2692.4293	 0.0090
2694.3580	 0.0090
2696.2867	 0.0090
2698.2154	 0.0090
2700.1440	 0.0091
2702.0727	 0.0091
2704.0014	 0.0091
2705.9301	 0.0091
2707.8587	 0.0092
2709.7874	 0.0092
2711.7161	 0.0093
2713.6448	 0.0093
2715.5734	 0.0093
2717.5021	 0.0094
2719.4308	 0.0094
2721.3595	 0.0094
2723.2881	 0.0094
2725.2168	 0.0094
2727.1455	 0.0095
2729.0742	 0.0095
2731.0028	 0.0095
2732.9315	 0.0096
2734.8602	 0.0096
2736.7889	 0.0096
2738.7175	 0.0097
2740.6462	 0.0097
2742.5749	 0.0097
2744.5036	 0.0097
2746.4322	 0.0097
2748.3609	 0.0097
2750.2896	 0.0098
2752.2182	 0.0098
2754.1469	 0.0098
