DATATYPE	 IR Spectrum
XYUNITS	 Wavenumber;Absorbance
DECIMALSYMBOL	 .
599.8177	 0.1607
601.7464	 0.1596
603.6751	 0.1592
605.6037	 0.1586
607.5324	 0.1572
609.4611	 0.1554
611.3898	 0.1545
613.3184	 0.1539
615.2471	 0.1527
617.1758	 0.1513
619.1045	 0.1500
621.0331	 0.1485
622.9618	 0.1473
624.8905	 0.1466
626.8192	 0.1454
628.7478	 0.1445
630.6765	 0.1437
632.6052	 0.1421
634.5339	 0.1408
636.4625	 0.1401
638.3912	 0.1393
640.3199	 0.1383
642.2485	 0.1373
644.1772	 0.1364
646.1059	 0.1358
648.0346	 0.1352
649.9632	 0.1343
651.8919	 0.1335
653.8206	 0.1331
655.7493	 0.1328
657.6779	 0.1324
659.6066	 0.1319
661.5353	 0.1312
663.4640	 0.1301
665.3926	 0.1296
667.3213	 0.1308
669.2500	 0.1287
671.1787	 0.1248
673.1073	 0.1221
675.0360	 0.1198
676.9647	 0.1176
678.8934	 0.1156
680.8220	 0.1140
682.7507	 0.1127
684.6794	 0.1115
686.6081	 0.1104
688.5367	 0.1094
690.4654	 0.1084
692.3941	 0.1075
694.3228	 0.1067
696.2514	 0.1060
698.1801	 0.1052
700.1088	 0.1042
702.0375	 0.1034
703.9661	 0.1026
705.8948	 0.1018
707.8235	 0.1008
709.7521	 0.1000
711.6808	 0.0991
713.6095	 0.0982
715.5382	 0.0973
717.4668	 0.0966
719.3955	 0.0959
721.3242	 0.0948
723.2529	 0.0937
725.1815	 0.0930
727.1102	 0.0921
729.0389	 0.0912
730.9676	 0.0903
732.8962	 0.0895
734.8249	 0.0889
736.7536	 0.0882
738.6823	 0.0876
740.6109	 0.0869
742.5396	 0.0864
744.4683	 0.0857
746.3970	 0.0849
748.3256	 0.0841
750.2543	 0.0834
752.1830	 0.0828
754.1117	 0.0822
756.0403	 0.0816
757.9690	 0.0811
759.8977	 0.0806
761.8264	 0.0800
763.7550	 0.0796
765.6837	 0.0791
767.6124	 0.0786
769.5411	 0.0781
771.4697	 0.0775
773.3984	 0.0768
775.3271	 0.0761
777.2557	 0.0753
779.1844	 0.0746
781.1131	 0.0739
783.0418	 0.0733
784.9704	 0.0726
786.8991	 0.0720
788.8278	 0.0716
790.7565	 0.0713
792.6851	 0.0710
794.6138	 0.0710
796.5425	 0.0711
798.4712	 0.0712
800.3998	 0.0712
802.3285	 0.0714
804.2572	 0.0715
806.1859	 0.0714
808.1145	 0.0712
810.0432	 0.0707
811.9719	 0.0699
813.9006	 0.0689
815.8292	 0.0676
817.7579	 0.0661
819.6866	 0.0645
821.6153	 0.0631
823.5439	 0.0619
825.4726	 0.0608
827.4013	 0.0599
829.3300	 0.0591
831.2586	 0.0584
833.1873	 0.0578
835.1160	 0.0571
837.0447	 0.0565
838.9733	 0.0558
840.9020	 0.0553
842.8307	 0.0550
844.7594	 0.0549
846.6880	 0.0550
848.6167	 0.0552
850.5454	 0.0556
852.4740	 0.0560
854.4027	 0.0565
856.3314	 0.0569
858.2601	 0.0572
860.1887	 0.0575
862.1174	 0.0577
864.0461	 0.0579
865.9748	 0.0581
867.9034	 0.0581
869.8321	 0.0582
871.7608	 0.0582
873.6895	 0.0582
875.6181	 0.0583
877.5468	 0.0583
879.4755	 0.0585
881.4042	 0.0588
883.3328	 0.0592
885.2615	 0.0598
887.1902	 0.0605
889.1189	 0.0613
891.0475	 0.0622
892.9762	 0.0630
894.9049	 0.0635
896.8336	 0.0635
898.7622	 0.0631
900.6909	 0.0621
902.6196	 0.0608
904.5483	 0.0593
906.4769	 0.0577
908.4056	 0.0562
910.3343	 0.0549
912.2630	 0.0539
914.1916	 0.0533
916.1203	 0.0530
918.0490	 0.0529
919.9776	 0.0530
921.9063	 0.0533
923.8350	 0.0537
925.7637	 0.0541
927.6923	 0.0546
929.6210	 0.0553
931.5497	 0.0560
933.4784	 0.0568
935.4070	 0.0577
937.3357	 0.0586
939.2644	 0.0596
941.1931	 0.0607
943.1217	 0.0618
945.0504	 0.0630
946.9791	 0.0644
948.9078	 0.0658
950.8364	 0.0674
952.7651	 0.0691
954.6938	 0.0710
956.6225	 0.0729
958.5511	 0.0749
960.4798	 0.0769
962.4085	 0.0789
964.3372	 0.0807
966.2658	 0.0825
968.1945	 0.0844
970.1232	 0.0864
972.0519	 0.0887
973.9805	 0.0915
975.9092	 0.0951
977.8379	 0.0994
979.7666	 0.1047
981.6952	 0.1109
983.6239	 0.1177
985.5526	 0.1248
987.4812	 0.1318
989.4099	 0.1385
991.3386	 0.1446
993.2673	 0.1499
995.1959	 0.1541
997.1246	 0.1576
999.0533	 0.1608
1000.9820	 0.1639
1002.9106	 0.1675
1004.8393	 0.1716
1006.7680	 0.1766
1008.6967	 0.1823
1010.6253	 0.1888
1012.5540	 0.1959
1014.4827	 0.2030
1016.4114	 0.2095
1018.3400	 0.2150
1020.2687	 0.2191
1022.1974	 0.2217
1024.1261	 0.2229
1026.0547	 0.2228
1027.9834	 0.2214
1029.9121	 0.2191
1031.8408	 0.2158
1033.7694	 0.2117
1035.6981	 0.2071
1037.6268	 0.2025
1039.5555	 0.1985
1041.4841	 0.1957
1043.4128	 0.1940
1045.3415	 0.1931
1047.2702	 0.1925
1049.1988	 0.1919
1051.1275	 0.1910
1053.0562	 0.1897
1054.9849	 0.1879
1056.9135	 0.1856
1058.8422	 0.1826
1060.7709	 0.1789
1062.6995	 0.1745
1064.6282	 0.1700
1066.5569	 0.1655
1068.4856	 0.1611
1070.4142	 0.1567
1072.3429	 0.1523
1074.2716	 0.1476
1076.2003	 0.1430
1078.1289	 0.1385
1080.0576	 0.1344
1081.9863	 0.1311
1083.9150	 0.1287
1085.8436	 0.1267
1087.7723	 0.1250
1089.7010	 0.1233
1091.6297	 0.1214
1093.5583	 0.1194
1095.4870	 0.1174
1097.4157	 0.1152
1099.3444	 0.1131
1101.2730	 0.1109
1103.2017	 0.1089
1105.1304	 0.1071
1107.0591	 0.1053
1108.9877	 0.1036
1110.9164	 0.1019
1112.8451	 0.0998
1114.7738	 0.0975
1116.7024	 0.0950
1118.6311	 0.0927
1120.5598	 0.0907
1122.4885	 0.0887
1124.4171	 0.0868
1126.3458	 0.0847
1128.2745	 0.0826
1130.2031	 0.0808
1132.1318	 0.0793
1134.0605	 0.0783
1135.9892	 0.0777
1137.9178	 0.0773
1139.8465	 0.0772
1141.7752	 0.0772
1143.7039	 0.0770
1145.6325	 0.0769
1147.5612	 0.0768
1149.4899	 0.0768
1151.4186	 0.0770
1153.3472	 0.0771
1155.2759	 0.0768
1157.2046	 0.0758
1159.1333	 0.0738
1161.0619	 0.0709
1162.9906	 0.0670
1164.9193	 0.0625
1166.8480	 0.0578
1168.7766	 0.0532
1170.7053	 0.0492
1172.6340	 0.0459
1174.5627	 0.0432
1176.4913	 0.0411
1178.4200	 0.0394
1180.3487	 0.0381
1182.2774	 0.0372
1184.2060	 0.0367
1186.1347	 0.0365
1188.0634	 0.0367
1189.9921	 0.0372
1191.9207	 0.0380
1193.8494	 0.0390
1195.7781	 0.0402
1197.7068	 0.0417
1199.6354	 0.0433
1201.5641	 0.0450
1203.4928	 0.0466
1205.4214	 0.0481
1207.3501	 0.0495
1209.2788	 0.0507
1211.2075	 0.0518
1213.1361	 0.0528
1215.0648	 0.0537
1216.9935	 0.0545
1218.9222	 0.0553
1220.8508	 0.0560
1222.7795	 0.0567
1224.7082	 0.0574
1226.6369	 0.0579
1228.5655	 0.0582
1230.4942	 0.0583
1232.4229	 0.0583
1234.3516	 0.0583
1236.2802	 0.0581
1238.2089	 0.0580
1240.1376	 0.0581
1242.0663	 0.0584
1243.9949	 0.0588
1245.9236	 0.0594
1247.8523	 0.0601
1249.7810	 0.0610
1251.7096	 0.0621
1253.6383	 0.0632
1255.5670	 0.0645
1257.4957	 0.0657
1259.4243	 0.0667
1261.3530	 0.0675
1263.2817	 0.0678
1265.2104	 0.0678
1267.1390	 0.0672
1269.0677	 0.0661
1270.9964	 0.0644
1272.9250	 0.0623
1274.8537	 0.0598
1276.7824	 0.0572
1278.7111	 0.0546
1280.6397	 0.0522
1282.5684	 0.0498
1284.4971	 0.0477
1286.4258	 0.0460
1288.3544	 0.0446
1290.2831	 0.0435
1292.2118	 0.0428
1294.1405	 0.0423
1296.0691	 0.0420
1297.9978	 0.0419
1299.9265	 0.0420
1301.8552	 0.0421
1303.7838	 0.0424
1305.7125	 0.0427
1307.6412	 0.0431
1309.5699	 0.0436
1311.4985	 0.0440
1313.4272	 0.0444
1315.3559	 0.0447
1317.2846	 0.0449
1319.2132	 0.0448
1321.1419	 0.0444
1323.0706	 0.0440
1324.9993	 0.0437
1326.9279	 0.0435
1328.8566	 0.0434
1330.7853	 0.0434
1332.7140	 0.0433
1334.6426	 0.0432
1336.5713	 0.0432
1338.5000	 0.0431
1340.4286	 0.0427
1342.3573	 0.0420
1344.2860	 0.0417
1346.2147	 0.0415
1348.1433	 0.0416
1350.0720	 0.0418
1352.0007	 0.0421
1353.9294	 0.0427
1355.8580	 0.0433
1357.7867	 0.0440
1359.7154	 0.0449
1361.6441	 0.0459
1363.5727	 0.0468
1365.5014	 0.0473
1367.4301	 0.0479
1369.3588	 0.0483
1371.2874	 0.0484
1373.2161	 0.0483
1375.1448	 0.0476
1377.0735	 0.0465
1379.0021	 0.0452
1380.9308	 0.0437
1382.8595	 0.0422
1384.7882	 0.0409
1386.7168	 0.0397
1388.6455	 0.0383
1390.5742	 0.0372
1392.5029	 0.0367
1394.4315	 0.0366
1396.3602	 0.0365
1398.2889	 0.0366
1400.2176	 0.0365
1402.1462	 0.0367
1404.0749	 0.0373
1406.0036	 0.0380
1407.9323	 0.0388
1409.8609	 0.0397
1411.7896	 0.0408
1413.7183	 0.0419
1415.6469	 0.0431
1417.5756	 0.0444
1419.5043	 0.0453
1421.4330	 0.0453
1423.3616	 0.0452
1425.2903	 0.0445
1427.2190	 0.0437
1429.1477	 0.0428
1431.0763	 0.0416
1433.0050	 0.0404
1434.9337	 0.0395
1436.8624	 0.0381
1438.7910	 0.0368
1440.7197	 0.0363
1442.6484	 0.0363
1444.5771	 0.0369
1446.5057	 0.0380
1448.4344	 0.0391
1450.3631	 0.0397
1452.2918	 0.0400
1454.2204	 0.0402
1456.1491	 0.0403
1458.0778	 0.0396
1460.0065	 0.0386
1461.9351	 0.0383
1463.8638	 0.0381
1465.7925	 0.0370
1467.7212	 0.0352
1469.6498	 0.0336
1471.5785	 0.0320
1473.5072	 0.0293
1475.4359	 0.0272
1477.3645	 0.0254
1479.2932	 0.0242
1481.2219	 0.0235
1483.1505	 0.0228
1485.0792	 0.0226
1487.0079	 0.0229
1488.9366	 0.0235
1490.8652	 0.0237
1492.7939	 0.0240
1494.7226	 0.0249
1496.6513	 0.0268
1498.5799	 0.0288
1500.5086	 0.0307
1502.4373	 0.0328
1504.3660	 0.0349
1506.2946	 0.0383
1508.2233	 0.0404
1510.1520	 0.0396
1512.0807	 0.0381
1514.0093	 0.0363
1515.9380	 0.0339
1517.8667	 0.0298
1519.7954	 0.0270
1521.7240	 0.0233
1523.6527	 0.0201
1525.5814	 0.0184
1527.5101	 0.0166
1529.4387	 0.0151
1531.3674	 0.0145
1533.2961	 0.0140
1535.2248	 0.0133
1537.1534	 0.0131
1539.0821	 0.0136
1541.0108	 0.0138
1542.9395	 0.0135
1544.8681	 0.0130
1546.7968	 0.0125
1548.7255	 0.0125
1550.6542	 0.0127
1552.5828	 0.0127
1554.5115	 0.0130
1556.4402	 0.0134
1558.3688	 0.0144
1560.2975	 0.0141
1562.2262	 0.0136
1564.1549	 0.0138
1566.0835	 0.0143
1568.0122	 0.0149
1569.9409	 0.0157
1571.8696	 0.0162
1573.7982	 0.0168
1575.7269	 0.0183
1577.6556	 0.0196
1579.5843	 0.0204
1581.5129	 0.0214
1583.4416	 0.0226
1585.3703	 0.0236
1587.2990	 0.0246
1589.2276	 0.0256
1591.1563	 0.0263
1593.0850	 0.0269
1595.0137	 0.0273
1596.9423	 0.0275
1598.8710	 0.0277
1600.7997	 0.0281
1602.7284	 0.0284
1604.6570	 0.0286
1606.5857	 0.0287
1608.5144	 0.0288
1610.4431	 0.0286
1612.3717	 0.0286
1614.3004	 0.0288
1616.2291	 0.0292
1618.1578	 0.0293
1620.0864	 0.0293
1622.0151	 0.0298
1623.9438	 0.0302
1625.8724	 0.0304
1627.8011	 0.0307
1629.7298	 0.0309
1631.6585	 0.0311
1633.5871	 0.0316
1635.5158	 0.0323
1637.4445	 0.0322
1639.3732	 0.0318
1641.3018	 0.0317
1643.2305	 0.0317
1645.1592	 0.0321
1647.0879	 0.0323
1649.0165	 0.0318
1650.9452	 0.0316
1652.8739	 0.0319
1654.8026	 0.0311
1656.7312	 0.0303
1658.6599	 0.0297
1660.5886	 0.0293
1662.5173	 0.0286
1664.4459	 0.0274
1666.3746	 0.0266
1668.3033	 0.0261
1670.2320	 0.0249
1672.1606	 0.0236
1674.0893	 0.0228
1676.0180	 0.0215
1677.9467	 0.0206
1679.8753	 0.0201
1681.8040	 0.0198
1683.7327	 0.0194
1685.6614	 0.0182
1687.5900	 0.0175
1689.5187	 0.0169
1691.4474	 0.0162
1693.3760	 0.0159
1695.3047	 0.0160
1697.2334	 0.0159
1699.1621	 0.0157
1701.0907	 0.0153
1703.0194	 0.0150
1704.9481	 0.0150
1706.8768	 0.0150
1708.8054	 0.0148
1710.7341	 0.0150
1712.6628	 0.0155
1714.5915	 0.0162
1716.5201	 0.0169
1718.4488	 0.0169
1720.3775	 0.0167
1722.3062	 0.0167
1724.2348	 0.0168
1726.1635	 0.0168
1728.0922	 0.0170
1730.0209	 0.0172
1731.9495	 0.0174
1733.8782	 0.0174
1735.8069	 0.0166
1737.7356	 0.0162
1739.6642	 0.0159
1741.5929	 0.0155
1743.5216	 0.0151
1745.4503	 0.0145
1747.3789	 0.0140
1749.3076	 0.0134
1751.2363	 0.0124
1753.1650	 0.0112
1755.0936	 0.0105
1757.0223	 0.0099
1758.9510	 0.0091
1760.8797	 0.0086
1762.8083	 0.0080
1764.7370	 0.0074
1766.6657	 0.0072
1768.5943	 0.0070
1770.5230	 0.0069
1772.4517	 0.0067
1774.3804	 0.0063
1776.3090	 0.0059
1778.2377	 0.0057
1780.1664	 0.0057
1782.0951	 0.0055
1784.0237	 0.0054
1785.9524	 0.0052
1787.8811	 0.0051
1789.8098	 0.0053
1791.7384	 0.0055
1793.6671	 0.0053
1795.5958	 0.0051
1797.5245	 0.0050
1799.4531	 0.0050
1801.3818	 0.0050
1803.3105	 0.0048
1805.2392	 0.0046
1807.1678	 0.0046
1809.0965	 0.0046
1811.0252	 0.0047
1812.9539	 0.0045
1814.8825	 0.0044
1816.8112	 0.0044
1818.7399	 0.0044
1820.6686	 0.0043
1822.5972	 0.0044
1824.5259	 0.0045
1826.4546	 0.0045
1828.3833	 0.0046
1830.3119	 0.0047
1832.2406	 0.0044
1834.1693	 0.0043
1836.0979	 0.0043
1838.0266	 0.0043
1839.9553	 0.0042
1841.8840	 0.0044
1843.8126	 0.0046
1845.7413	 0.0046
1847.6700	 0.0044
1849.5987	 0.0042
1851.5273	 0.0041
1853.4560	 0.0041
1855.3847	 0.0041
1857.3134	 0.0042
1859.2420	 0.0042
1861.1707	 0.0042
1863.0994	 0.0042
1865.0281	 0.0042
1866.9567	 0.0045
1868.8854	 0.0047
1870.8141	 0.0044
1872.7428	 0.0042
1874.6714	 0.0041
1876.6001	 0.0041
1878.5288	 0.0042
1880.4575	 0.0042
1882.3861	 0.0041
1884.3148	 0.0042
1886.2435	 0.0042
1888.1722	 0.0043
1890.1008	 0.0044
1892.0295	 0.0042
1893.9582	 0.0042
1895.8869	 0.0042
1897.8155	 0.0042
1899.7442	 0.0041
1901.6729	 0.0042
1903.6016	 0.0042
1905.5302	 0.0042
1907.4589	 0.0043
1909.3876	 0.0044
1911.3162	 0.0043
1913.2449	 0.0042
1915.1736	 0.0042
1917.1023	 0.0044
1919.0309	 0.0044
1920.9596	 0.0044
1922.8883	 0.0044
1924.8170	 0.0043
1926.7456	 0.0042
1928.6743	 0.0043
1930.6030	 0.0042
1932.5317	 0.0043
1934.4603	 0.0043
1936.3890	 0.0043
1938.3177	 0.0043
1940.2464	 0.0044
1942.1750	 0.0046
1944.1037	 0.0046
1946.0324	 0.0044
1947.9611	 0.0044
1949.8897	 0.0044
1951.8184	 0.0044
1953.7471	 0.0045
1955.6758	 0.0045
1957.6044	 0.0045
1959.5331	 0.0045
1961.4618	 0.0045
1963.3905	 0.0045
1965.3191	 0.0046
1967.2478	 0.0047
1969.1765	 0.0046
1971.1052	 0.0046
1973.0338	 0.0046
1974.9625	 0.0046
1976.8912	 0.0046
1978.8198	 0.0046
1980.7485	 0.0047
1982.6772	 0.0047
1984.6059	 0.0047
1986.5345	 0.0047
1988.4632	 0.0048
1990.3919	 0.0049
1992.3206	 0.0049
1994.2492	 0.0048
1996.1779	 0.0048
1998.1066	 0.0048
2000.0353	 0.0048
2001.9639	 0.0048
2003.8926	 0.0048
2005.8213	 0.0049
2007.7500	 0.0049
2009.6786	 0.0049
2011.6073	 0.0049
2013.5360	 0.0050
2015.4647	 0.0051
2017.3933	 0.0051
2019.3220	 0.0051
2021.2507	 0.0051
2023.1794	 0.0051
2025.1080	 0.0051
2027.0367	 0.0051
2028.9654	 0.0051
2030.8941	 0.0051
2032.8227	 0.0052
2034.7514	 0.0052
2036.6801	 0.0052
2038.6088	 0.0053
2040.5374	 0.0053
2042.4661	 0.0053
2044.3948	 0.0053
2046.3234	 0.0053
2048.2521	 0.0053
2050.1808	 0.0053
2052.1095	 0.0053
2054.0381	 0.0053
2055.9668	 0.0053
2057.8955	 0.0053
2059.8242	 0.0053
2061.7528	 0.0053
2063.6815	 0.0054
2065.6102	 0.0054
2067.5389	 0.0054
2069.4675	 0.0053
2071.3962	 0.0053
2073.3249	 0.0053
2075.2536	 0.0054
2077.1822	 0.0053
2079.1109	 0.0053
2081.0396	 0.0053
2082.9683	 0.0053
2084.8969	 0.0053
2086.8256	 0.0053
2088.7543	 0.0054
2090.6830	 0.0053
2092.6116	 0.0053
2094.5403	 0.0053
2096.4690	 0.0053
2098.3977	 0.0054
2100.3263	 0.0053
2102.2550	 0.0053
2104.1837	 0.0054
2106.1124	 0.0053
2108.0410	 0.0053
2109.9697	 0.0053
2111.8984	 0.0054
2113.8271	 0.0053
2115.7557	 0.0053
2117.6844	 0.0054
2119.6131	 0.0053
2121.5417	 0.0053
2123.4704	 0.0053
2125.3991	 0.0053
2127.3278	 0.0053
2129.2564	 0.0053
2131.1851	 0.0053
2133.1138	 0.0053
2135.0425	 0.0053
2136.9711	 0.0053
2138.8998	 0.0053
2140.8285	 0.0053
2142.7572	 0.0053
2144.6858	 0.0053
2146.6145	 0.0053
2148.5432	 0.0053
2150.4719	 0.0052
2152.4005	 0.0052
2154.3292	 0.0052
2156.2579	 0.0052
2158.1866	 0.0051
2160.1152	 0.0051
2162.0439	 0.0051
2163.9726	 0.0051
2165.9013	 0.0051
2167.8299	 0.0051
2169.7586	 0.0051
2171.6873	 0.0051
2173.6160	 0.0050
2175.5446	 0.0050
2177.4733	 0.0050
2179.4020	 0.0050
2181.3307	 0.0050
2183.2593	 0.0049
2185.1880	 0.0049
2187.1167	 0.0049
2189.0453	 0.0049
2190.9740	 0.0049
2192.9027	 0.0049
2194.8314	 0.0048
2196.7600	 0.0048
2198.6887	 0.0048
2200.6174	 0.0048
2202.5461	 0.0048
2204.4747	 0.0048
2206.4034	 0.0047
2208.3321	 0.0047
2210.2608	 0.0047
2212.1894	 0.0047
2214.1181	 0.0046
2216.0468	 0.0046
2217.9755	 0.0046
2219.9041	 0.0046
2221.8328	 0.0046
2223.7615	 0.0046
2225.6902	 0.0046
2227.6188	 0.0046
2229.5475	 0.0046
2231.4762	 0.0046
2233.4049	 0.0046
2235.3335	 0.0045
2237.2622	 0.0045
2239.1909	 0.0045
2241.1196	 0.0045
2243.0482	 0.0045
2244.9769	 0.0045
2246.9056	 0.0045
2248.8343	 0.0045
2250.7629	 0.0045
2252.6916	 0.0046
2254.6203	 0.0046
2256.5490	 0.0045
2258.4776	 0.0046
2260.4063	 0.0046
2262.3350	 0.0046
2264.2636	 0.0046
2266.1923	 0.0046
2268.1210	 0.0046
2270.0497	 0.0046
2271.9783	 0.0046
2273.9070	 0.0046
2275.8357	 0.0046
2277.7644	 0.0045
2279.6930	 0.0045
2281.6217	 0.0045
2283.5504	 0.0045
2285.4791	 0.0046
2287.4077	 0.0047
2289.3364	 0.0048
2291.2651	 0.0050
2293.1938	 0.0052
2295.1224	 0.0053
2297.0511	 0.0055
2298.9798	 0.0058
2300.9085	 0.0060
2302.8371	 0.0063
2304.7658	 0.0066
2306.6945	 0.0070
2308.6232	 0.0075
2310.5518	 0.0079
2312.4805	 0.0082
2314.4092	 0.0084
2316.3379	 0.0087
2318.2665	 0.0094
2320.1952	 0.0102
2322.1239	 0.0108
2324.0526	 0.0111
2325.9812	 0.0113
2327.9099	 0.0117
2329.8386	 0.0121
2331.7672	 0.0123
2333.6959	 0.0122
2335.6246	 0.0123
2337.5533	 0.0125
2339.4819	 0.0127
2341.4106	 0.0130
2343.3393	 0.0130
2345.2680	 0.0124
2347.1966	 0.0109
2349.1253	 0.0104
2351.0540	 0.0115
2352.9827	 0.0132
2354.9113	 0.0145
2356.8400	 0.0155
2358.7687	 0.0161
2360.6974	 0.0161
2362.6260	 0.0158
2364.5547	 0.0152
2366.4834	 0.0144
2368.4121	 0.0134
2370.3407	 0.0122
2372.2694	 0.0111
2374.1981	 0.0100
2376.1268	 0.0089
2378.0554	 0.0079
2379.9841	 0.0069
2381.9128	 0.0059
2383.8415	 0.0051
2385.7701	 0.0046
2387.6988	 0.0043
2389.6275	 0.0042
2391.5562	 0.0042
2393.4848	 0.0042
2395.4135	 0.0042
2397.3422	 0.0042
2399.2708	 0.0042
2401.1995	 0.0042
2403.1282	 0.0042
2405.0569	 0.0042
2406.9855	 0.0042
2408.9142	 0.0042
2410.8429	 0.0042
2412.7716	 0.0043
2414.7002	 0.0043
2416.6289	 0.0043
2418.5576	 0.0043
2420.4863	 0.0043
2422.4149	 0.0043
2424.3436	 0.0043
2426.2723	 0.0044
2428.2010	 0.0044
2430.1296	 0.0044
2432.0583	 0.0044
2433.9870	 0.0044
2435.9157	 0.0044
2437.8443	 0.0044
2439.7730	 0.0044
2441.7017	 0.0044
2443.6304	 0.0044
2445.5590	 0.0045
2447.4877	 0.0045
2449.4164	 0.0045
2451.3451	 0.0046
2453.2737	 0.0046
2455.2024	 0.0046
2457.1311	 0.0046
2459.0598	 0.0046
2460.9884	 0.0046
2462.9171	 0.0046
2464.8458	 0.0047
2466.7745	 0.0047
2468.7031	 0.0047
2470.6318	 0.0047
2472.5605	 0.0047
2474.4891	 0.0047
2476.4178	 0.0047
2478.3465	 0.0047
2480.2752	 0.0048
2482.2038	 0.0048
2484.1325	 0.0048
2486.0612	 0.0048
2487.9899	 0.0048
2489.9185	 0.0048
2491.8472	 0.0049
2493.7759	 0.0049
2495.7046	 0.0049
2497.6332	 0.0049
2499.5619	 0.0049
2501.4906	 0.0049
2503.4193	 0.0050
2505.3479	 0.0050
2507.2766	 0.0050
2509.2053	 0.0050
2511.1340	 0.0050
2513.0626	 0.0050
2514.9913	 0.0051
2516.9200	 0.0051
2518.8487	 0.0051
2520.7773	 0.0051
2522.7060	 0.0051
2524.6347	 0.0051
2526.5634	 0.0051
2528.4920	 0.0051
2530.4207	 0.0052
2532.3494	 0.0052
2534.2781	 0.0052
2536.2067	 0.0052
2538.1354	 0.0052
2540.0641	 0.0052
2541.9927	 0.0052
2543.9214	 0.0053
2545.8501	 0.0053
2547.7788	 0.0053
2549.7074	 0.0053
2551.6361	 0.0053
2553.5648	 0.0053
2555.4935	 0.0053
2557.4221	 0.0053
2559.3508	 0.0053
2561.2795	 0.0054
2563.2082	 0.0054
2565.1368	 0.0054
2567.0655	 0.0054
2568.9942	 0.0054
2570.9229	 0.0054
2572.8515	 0.0054
2574.7802	 0.0055
2576.7089	 0.0055
2578.6376	 0.0055
2580.5662	 0.0055
2582.4949	 0.0055
2584.4236	 0.0056
2586.3523	 0.0056
2588.2809	 0.0056
2590.2096	 0.0056
2592.1383	 0.0056
2594.0670	 0.0056
2595.9956	 0.0057
2597.9243	 0.0057
2599.8530	 0.0057
2601.7817	 0.0057
2603.7103	 0.0057
2605.6390	 0.0058
2607.5677	 0.0058
2609.4964	 0.0058
2611.4250	 0.0058
2613.3537	 0.0059
2615.2824	 0.0059
2617.2110	 0.0059
2619.1397	 0.0060
2621.0684	 0.0060
2622.9971	 0.0060
2624.9257	 0.0060
2626.8544	 0.0061
2628.7831	 0.0061
2630.7118	 0.0062
2632.6404	 0.0062
2634.5691	 0.0062
2636.4978	 0.0063
2638.4265	 0.0063
2640.3551	 0.0063
2642.2838	 0.0064
2644.2125	 0.0064
2646.1412	 0.0064
2648.0698	 0.0064
2649.9985	 0.0065
2651.9272	 0.0065
2653.8559	 0.0065
2655.7845	 0.0066
2657.7132	 0.0066
2659.6419	 0.0066
2661.5706	 0.0067
2663.4992	 0.0067
2665.4279	 0.0068
2667.3566	 0.0068
2669.2853	 0.0068
2671.2139	 0.0069
2673.1426	 0.0069
2675.0713	 0.0070
2677.0000	 0.0070
2678.9286	 0.0070
2680.8573	 0.0071
2682.7860	 0.0071
2684.7146	 0.0071
2686.6433	 0.0072
2688.5720	 0.0073
2690.5007	 0.0073
2692.4293	 0.0073
2694.3580	 0.0074
2696.2867	 0.0074
2698.2154	 0.0074
2700.1440	 0.0075
2702.0727	 0.0075
2704.0014	 0.0076
2705.9301	 0.0076
2707.8587	 0.0077
2709.7874	 0.0077
2711.7161	 0.0078
2713.6448	 0.0078
2715.5734	 0.0078
2717.5021	 0.0079
2719.4308	 0.0079
2721.3595	 0.0080
2723.2881	 0.0080
2725.2168	 0.0081
2727.1455	 0.0081
2729.0742	 0.0081
2731.0028	 0.0082
2732.9315	 0.0082
2734.8602	 0.0082
2736.7889	 0.0083
2738.7175	 0.0083
2740.6462	 0.0084
2742.5749	 0.0084
2744.5036	 0.0084
2746.4322	 0.0084
2748.3609	 0.0084
2750.2896	 0.0085
2752.2182	 0.0085
2754.1469	 0.0085
