DATATYPE	 IR Spectrum
XYUNITS	 Wavenumber;Absorbance
DECIMALSYMBOL	 .
599.8177	 0.0510
601.7464	 0.0502
603.6751	 0.0493
605.6037	 0.0494
607.5324	 0.0492
609.4611	 0.0478
611.3898	 0.0471
613.3184	 0.0470
615.2471	 0.0469
617.1758	 0.0463
619.1045	 0.0452
621.0331	 0.0441
622.9618	 0.0433
624.8905	 0.0431
626.8192	 0.0429
628.7478	 0.0424
630.6765	 0.0415
632.6052	 0.0408
634.5339	 0.0406
636.4625	 0.0405
638.3912	 0.0405
640.3199	 0.0404
642.2485	 0.0403
644.1772	 0.0402
646.1059	 0.0403
648.0346	 0.0405
649.9632	 0.0405
651.8919	 0.0403
653.8206	 0.0403
655.7493	 0.0403
657.6779	 0.0402
659.6066	 0.0400
661.5353	 0.0396
663.4640	 0.0390
665.3926	 0.0395
667.3213	 0.0442
669.2500	 0.0447
671.1787	 0.0395
673.1073	 0.0373
675.0360	 0.0366
676.9647	 0.0358
678.8934	 0.0350
680.8220	 0.0343
682.7507	 0.0336
684.6794	 0.0328
686.6081	 0.0322
688.5367	 0.0317
690.4654	 0.0311
692.3941	 0.0304
694.3228	 0.0299
696.2514	 0.0294
698.1801	 0.0291
700.1088	 0.0287
702.0375	 0.0283
703.9661	 0.0280
705.8948	 0.0276
707.8235	 0.0271
709.7521	 0.0268
711.6808	 0.0265
713.6095	 0.0262
715.5382	 0.0258
717.4668	 0.0256
719.3955	 0.0258
721.3242	 0.0254
723.2529	 0.0245
725.1815	 0.0239
727.1102	 0.0235
729.0389	 0.0232
730.9676	 0.0229
732.8962	 0.0225
734.8249	 0.0222
736.7536	 0.0219
738.6823	 0.0217
740.6109	 0.0215
742.5396	 0.0212
744.4683	 0.0210
746.3970	 0.0208
748.3256	 0.0206
750.2543	 0.0204
752.1830	 0.0201
754.1117	 0.0198
756.0403	 0.0196
757.9690	 0.0193
759.8977	 0.0191
761.8264	 0.0188
763.7550	 0.0185
765.6837	 0.0184
767.6124	 0.0182
769.5411	 0.0181
771.4697	 0.0179
773.3984	 0.0177
775.3271	 0.0174
777.2557	 0.0173
779.1844	 0.0172
781.1131	 0.0171
783.0418	 0.0171
784.9704	 0.0170
786.8991	 0.0169
788.8278	 0.0169
790.7565	 0.0169
792.6851	 0.0169
794.6138	 0.0169
796.5425	 0.0169
798.4712	 0.0168
800.3998	 0.0167
802.3285	 0.0167
804.2572	 0.0167
806.1859	 0.0167
808.1145	 0.0167
810.0432	 0.0168
811.9719	 0.0168
813.9006	 0.0169
815.8292	 0.0171
817.7579	 0.0172
819.6866	 0.0173
821.6153	 0.0174
823.5439	 0.0176
825.4726	 0.0176
827.4013	 0.0177
829.3300	 0.0178
831.2586	 0.0179
833.1873	 0.0179
835.1160	 0.0178
837.0447	 0.0177
838.9733	 0.0175
840.9020	 0.0175
842.8307	 0.0174
844.7594	 0.0173
846.6880	 0.0172
848.6167	 0.0170
850.5454	 0.0169
852.4740	 0.0168
854.4027	 0.0168
856.3314	 0.0167
858.2601	 0.0168
860.1887	 0.0169
862.1174	 0.0171
864.0461	 0.0172
865.9748	 0.0174
867.9034	 0.0177
869.8321	 0.0180
871.7608	 0.0182
873.6895	 0.0185
875.6181	 0.0187
877.5468	 0.0189
879.4755	 0.0190
881.4042	 0.0193
883.3328	 0.0196
885.2615	 0.0200
887.1902	 0.0205
889.1189	 0.0210
891.0475	 0.0217
892.9762	 0.0222
894.9049	 0.0226
896.8336	 0.0228
898.7622	 0.0226
900.6909	 0.0223
902.6196	 0.0218
904.5483	 0.0213
906.4769	 0.0209
908.4056	 0.0206
910.3343	 0.0203
912.2630	 0.0202
914.1916	 0.0201
916.1203	 0.0201
918.0490	 0.0202
919.9776	 0.0202
921.9063	 0.0204
923.8350	 0.0205
925.7637	 0.0206
927.6923	 0.0207
929.6210	 0.0208
931.5497	 0.0209
933.4784	 0.0210
935.4070	 0.0211
937.3357	 0.0213
939.2644	 0.0216
941.1931	 0.0221
943.1217	 0.0226
945.0504	 0.0233
946.9791	 0.0240
948.9078	 0.0249
950.8364	 0.0259
952.7651	 0.0270
954.6938	 0.0282
956.6225	 0.0295
958.5511	 0.0307
960.4798	 0.0320
962.4085	 0.0333
964.3372	 0.0346
966.2658	 0.0358
968.1945	 0.0372
970.1232	 0.0386
972.0519	 0.0400
973.9805	 0.0416
975.9092	 0.0434
977.8379	 0.0453
979.7666	 0.0475
981.6952	 0.0497
983.6239	 0.0518
985.5526	 0.0536
987.4812	 0.0551
989.4099	 0.0562
991.3386	 0.0571
993.2673	 0.0579
995.1959	 0.0584
997.1246	 0.0590
999.0533	 0.0596
1000.9820	 0.0603
1002.9106	 0.0611
1004.8393	 0.0622
1006.7680	 0.0634
1008.6967	 0.0648
1010.6253	 0.0663
1012.5540	 0.0680
1014.4827	 0.0697
1016.4114	 0.0713
1018.3400	 0.0727
1020.2687	 0.0738
1022.1974	 0.0749
1024.1261	 0.0758
1026.0547	 0.0767
1027.9834	 0.0773
1029.9121	 0.0778
1031.8408	 0.0780
1033.7694	 0.0778
1035.6981	 0.0772
1037.6268	 0.0763
1039.5555	 0.0752
1041.4841	 0.0743
1043.4128	 0.0737
1045.3415	 0.0732
1047.2702	 0.0726
1049.1988	 0.0720
1051.1275	 0.0712
1053.0562	 0.0701
1054.9849	 0.0687
1056.9135	 0.0672
1058.8422	 0.0655
1060.7709	 0.0635
1062.6995	 0.0614
1064.6282	 0.0592
1066.5569	 0.0573
1068.4856	 0.0556
1070.4142	 0.0542
1072.3429	 0.0530
1074.2716	 0.0519
1076.2003	 0.0508
1078.1289	 0.0497
1080.0576	 0.0486
1081.9863	 0.0476
1083.9150	 0.0467
1085.8436	 0.0461
1087.7723	 0.0455
1089.7010	 0.0449
1091.6297	 0.0444
1093.5583	 0.0440
1095.4870	 0.0435
1097.4157	 0.0432
1099.3444	 0.0430
1101.2730	 0.0429
1103.2017	 0.0428
1105.1304	 0.0426
1107.0591	 0.0423
1108.9877	 0.0420
1110.9164	 0.0415
1112.8451	 0.0410
1114.7738	 0.0402
1116.7024	 0.0394
1118.6311	 0.0387
1120.5598	 0.0379
1122.4885	 0.0371
1124.4171	 0.0361
1126.3458	 0.0348
1128.2745	 0.0331
1130.2031	 0.0313
1132.1318	 0.0294
1134.0605	 0.0275
1135.9892	 0.0259
1137.9178	 0.0246
1139.8465	 0.0237
1141.7752	 0.0233
1143.7039	 0.0233
1145.6325	 0.0234
1147.5612	 0.0237
1149.4899	 0.0241
1151.4186	 0.0245
1153.3472	 0.0248
1155.2759	 0.0250
1157.2046	 0.0250
1159.1333	 0.0247
1161.0619	 0.0241
1162.9906	 0.0232
1164.9193	 0.0219
1166.8480	 0.0205
1168.7766	 0.0190
1170.7053	 0.0175
1172.6340	 0.0162
1174.5627	 0.0151
1176.4913	 0.0142
1178.4200	 0.0136
1180.3487	 0.0132
1182.2774	 0.0128
1184.2060	 0.0126
1186.1347	 0.0125
1188.0634	 0.0125
1189.9921	 0.0126
1191.9207	 0.0128
1193.8494	 0.0132
1195.7781	 0.0136
1197.7068	 0.0143
1199.6354	 0.0150
1201.5641	 0.0156
1203.4928	 0.0164
1205.4214	 0.0171
1207.3501	 0.0179
1209.2788	 0.0188
1211.2075	 0.0197
1213.1361	 0.0206
1215.0648	 0.0216
1216.9935	 0.0225
1218.9222	 0.0235
1220.8508	 0.0243
1222.7795	 0.0251
1224.7082	 0.0258
1226.6369	 0.0263
1228.5655	 0.0268
1230.4942	 0.0271
1232.4229	 0.0273
1234.3516	 0.0273
1236.2802	 0.0272
1238.2089	 0.0270
1240.1376	 0.0267
1242.0663	 0.0264
1243.9949	 0.0259
1245.9236	 0.0254
1247.8523	 0.0247
1249.7810	 0.0240
1251.7096	 0.0233
1253.6383	 0.0227
1255.5670	 0.0220
1257.4957	 0.0214
1259.4243	 0.0208
1261.3530	 0.0201
1263.2817	 0.0194
1265.2104	 0.0188
1267.1390	 0.0181
1269.0677	 0.0175
1270.9964	 0.0169
1272.9250	 0.0162
1274.8537	 0.0155
1276.7824	 0.0149
1278.7111	 0.0143
1280.6397	 0.0139
1282.5684	 0.0134
1284.4971	 0.0130
1286.4258	 0.0127
1288.3544	 0.0124
1290.2831	 0.0123
1292.2118	 0.0122
1294.1405	 0.0122
1296.0691	 0.0122
1297.9978	 0.0124
1299.9265	 0.0126
1301.8552	 0.0129
1303.7838	 0.0133
1305.7125	 0.0137
1307.6412	 0.0142
1309.5699	 0.0146
1311.4985	 0.0152
1313.4272	 0.0157
1315.3559	 0.0161
1317.2846	 0.0165
1319.2132	 0.0167
1321.1419	 0.0167
1323.0706	 0.0167
1324.9993	 0.0167
1326.9279	 0.0168
1328.8566	 0.0167
1330.7853	 0.0166
1332.7140	 0.0164
1334.6426	 0.0162
1336.5713	 0.0162
1338.5000	 0.0162
1340.4286	 0.0157
1342.3573	 0.0149
1344.2860	 0.0144
1346.2147	 0.0142
1348.1433	 0.0141
1350.0720	 0.0142
1352.0007	 0.0142
1353.9294	 0.0145
1355.8580	 0.0148
1357.7867	 0.0151
1359.7154	 0.0157
1361.6441	 0.0166
1363.5727	 0.0170
1365.5014	 0.0168
1367.4301	 0.0169
1369.3588	 0.0171
1371.2874	 0.0172
1373.2161	 0.0174
1375.1448	 0.0171
1377.0735	 0.0163
1379.0021	 0.0156
1380.9308	 0.0148
1382.8595	 0.0140
1384.7882	 0.0135
1386.7168	 0.0133
1388.6455	 0.0126
1390.5742	 0.0119
1392.5029	 0.0119
1394.4315	 0.0123
1396.3602	 0.0123
1398.2889	 0.0121
1400.2176	 0.0118
1402.1462	 0.0116
1404.0749	 0.0120
1406.0036	 0.0123
1407.9323	 0.0123
1409.8609	 0.0127
1411.7896	 0.0132
1413.7183	 0.0138
1415.6469	 0.0146
1417.5756	 0.0157
1419.5043	 0.0161
1421.4330	 0.0157
1423.3616	 0.0156
1425.2903	 0.0151
1427.2190	 0.0146
1429.1477	 0.0142
1431.0763	 0.0136
1433.0050	 0.0129
1434.9337	 0.0128
1436.8624	 0.0126
1438.7910	 0.0117
1440.7197	 0.0113
1442.6484	 0.0114
1444.5771	 0.0117
1446.5057	 0.0123
1448.4344	 0.0128
1450.3631	 0.0130
1452.2918	 0.0133
1454.2204	 0.0141
1456.1491	 0.0153
1458.0778	 0.0157
1460.0065	 0.0143
1461.9351	 0.0137
1463.8638	 0.0136
1465.7925	 0.0130
1467.7212	 0.0118
1469.6498	 0.0112
1471.5785	 0.0113
1473.5072	 0.0105
1475.4359	 0.0091
1477.3645	 0.0078
1479.2932	 0.0070
1481.2219	 0.0067
1483.1505	 0.0064
1485.0792	 0.0065
1487.0079	 0.0073
1488.9366	 0.0083
1490.8652	 0.0082
1492.7939	 0.0077
1494.7226	 0.0082
1496.6513	 0.0094
1498.5799	 0.0099
1500.5086	 0.0098
1502.4373	 0.0098
1504.3660	 0.0104
1506.2946	 0.0122
1508.2233	 0.0116
1510.1520	 0.0096
1512.0807	 0.0083
1514.0093	 0.0077
1515.9380	 0.0078
1517.8667	 0.0074
1519.7954	 0.0071
1521.7240	 0.0070
1523.6527	 0.0061
1525.5814	 0.0055
1527.5101	 0.0050
1529.4387	 0.0044
1531.3674	 0.0044
1533.2961	 0.0049
1535.2248	 0.0045
1537.1534	 0.0044
1539.0821	 0.0058
1541.0108	 0.0066
1542.9395	 0.0059
1544.8681	 0.0050
1546.7968	 0.0041
1548.7255	 0.0041
1550.6542	 0.0043
1552.5828	 0.0042
1554.5115	 0.0047
1556.4402	 0.0053
1558.3688	 0.0068
1560.2975	 0.0058
1562.2262	 0.0046
1564.1549	 0.0044
1566.0835	 0.0045
1568.0122	 0.0049
1569.9409	 0.0055
1571.8696	 0.0052
1573.7982	 0.0053
1575.7269	 0.0064
1577.6556	 0.0068
1579.5843	 0.0066
1581.5129	 0.0069
1583.4416	 0.0076
1585.3703	 0.0082
1587.2990	 0.0089
1589.2276	 0.0095
1591.1563	 0.0099
1593.0850	 0.0100
1595.0137	 0.0100
1596.9423	 0.0095
1598.8710	 0.0090
1600.7997	 0.0087
1602.7284	 0.0084
1604.6570	 0.0081
1606.5857	 0.0079
1608.5144	 0.0078
1610.4431	 0.0075
1612.3717	 0.0073
1614.3004	 0.0074
1616.2291	 0.0080
1618.1578	 0.0077
1620.0864	 0.0073
1622.0151	 0.0076
1623.9438	 0.0077
1625.8724	 0.0074
1627.8011	 0.0073
1629.7298	 0.0071
1631.6585	 0.0070
1633.5871	 0.0074
1635.5158	 0.0084
1637.4445	 0.0081
1639.3732	 0.0074
1641.3018	 0.0071
1643.2305	 0.0072
1645.1592	 0.0080
1647.0879	 0.0089
1649.0165	 0.0082
1650.9452	 0.0080
1652.8739	 0.0092
1654.8026	 0.0084
1656.7312	 0.0072
1658.6599	 0.0068
1660.5886	 0.0069
1662.5173	 0.0071
1664.4459	 0.0066
1666.3746	 0.0064
1668.3033	 0.0069
1670.2320	 0.0070
1672.1606	 0.0063
1674.0893	 0.0061
1676.0180	 0.0057
1677.9467	 0.0053
1679.8753	 0.0055
1681.8040	 0.0059
1683.7327	 0.0066
1685.6614	 0.0059
1687.5900	 0.0051
1689.5187	 0.0049
1691.4474	 0.0045
1693.3760	 0.0045
1695.3047	 0.0054
1697.2334	 0.0060
1699.1621	 0.0061
1701.0907	 0.0060
1703.0194	 0.0058
1704.9481	 0.0061
1706.8768	 0.0062
1708.8054	 0.0061
1710.7341	 0.0064
1712.6628	 0.0071
1714.5915	 0.0083
1716.5201	 0.0097
1718.4488	 0.0099
1720.3775	 0.0094
1722.3062	 0.0096
1724.2348	 0.0100
1726.1635	 0.0103
1728.0922	 0.0109
1730.0209	 0.0117
1731.9495	 0.0124
1733.8782	 0.0130
1735.8069	 0.0123
1737.7356	 0.0120
1739.6642	 0.0119
1741.5929	 0.0116
1743.5216	 0.0113
1745.4503	 0.0109
1747.3789	 0.0106
1749.3076	 0.0103
1751.2363	 0.0091
1753.1650	 0.0078
1755.0936	 0.0071
1757.0223	 0.0066
1758.9510	 0.0059
1760.8797	 0.0054
1762.8083	 0.0047
1764.7370	 0.0039
1766.6657	 0.0036
1768.5943	 0.0035
1770.5230	 0.0036
1772.4517	 0.0036
1774.3804	 0.0028
1776.3090	 0.0022
1778.2377	 0.0020
1780.1664	 0.0021
1782.0951	 0.0019
1784.0237	 0.0018
1785.9524	 0.0016
1787.8811	 0.0015
1789.8098	 0.0018
1791.7384	 0.0023
1793.6671	 0.0021
1795.5958	 0.0018
1797.5245	 0.0017
1799.4531	 0.0018
1801.3818	 0.0018
1803.3105	 0.0015
1805.2392	 0.0013
1807.1678	 0.0013
1809.0965	 0.0015
1811.0252	 0.0016
1812.9539	 0.0013
1814.8825	 0.0011
1816.8112	 0.0011
1818.7399	 0.0011
1820.6686	 0.0011
1822.5972	 0.0013
1824.5259	 0.0015
1826.4546	 0.0015
1828.3833	 0.0017
1830.3119	 0.0018
1832.2406	 0.0013
1834.1693	 0.0011
1836.0979	 0.0012
1838.0266	 0.0012
1839.9553	 0.0011
1841.8840	 0.0014
1843.8126	 0.0019
1845.7413	 0.0018
1847.6700	 0.0014
1849.5987	 0.0012
1851.5273	 0.0010
1853.4560	 0.0010
1855.3847	 0.0010
1857.3134	 0.0011
1859.2420	 0.0011
1861.1707	 0.0011
1863.0994	 0.0011
1865.0281	 0.0013
1866.9567	 0.0018
1868.8854	 0.0020
1870.8141	 0.0015
1872.7428	 0.0011
1874.6714	 0.0010
1876.6001	 0.0011
1878.5288	 0.0011
1880.4575	 0.0011
1882.3861	 0.0011
1884.3148	 0.0011
1886.2435	 0.0011
1888.1722	 0.0013
1890.1008	 0.0014
1892.0295	 0.0012
1893.9582	 0.0012
1895.8869	 0.0012
1897.8155	 0.0011
1899.7442	 0.0011
1901.6729	 0.0011
1903.6016	 0.0011
1905.5302	 0.0011
1907.4589	 0.0013
1909.3876	 0.0014
1911.3162	 0.0012
1913.2449	 0.0011
1915.1736	 0.0012
1917.1023	 0.0014
1919.0309	 0.0014
1920.9596	 0.0014
1922.8883	 0.0015
1924.8170	 0.0013
1926.7456	 0.0011
1928.6743	 0.0011
1930.6030	 0.0012
1932.5317	 0.0012
1934.4603	 0.0012
1936.3890	 0.0012
1938.3177	 0.0012
1940.2464	 0.0013
1942.1750	 0.0016
1944.1037	 0.0015
1946.0324	 0.0013
1947.9611	 0.0013
1949.8897	 0.0012
1951.8184	 0.0012
1953.7471	 0.0012
1955.6758	 0.0012
1957.6044	 0.0012
1959.5331	 0.0012
1961.4618	 0.0012
1963.3905	 0.0012
1965.3191	 0.0014
1967.2478	 0.0015
1969.1765	 0.0013
1971.1052	 0.0012
1973.0338	 0.0012
1974.9625	 0.0012
1976.8912	 0.0012
1978.8198	 0.0012
1980.7485	 0.0012
1982.6772	 0.0012
1984.6059	 0.0012
1986.5345	 0.0013
1988.4632	 0.0013
1990.3919	 0.0015
1992.3206	 0.0015
1994.2492	 0.0014
1996.1779	 0.0013
1998.1066	 0.0013
2000.0353	 0.0013
2001.9639	 0.0013
2003.8926	 0.0013
2005.8213	 0.0013
2007.7500	 0.0013
2009.6786	 0.0013
2011.6073	 0.0013
2013.5360	 0.0013
2015.4647	 0.0014
2017.3933	 0.0015
2019.3220	 0.0014
2021.2507	 0.0014
2023.1794	 0.0014
2025.1080	 0.0014
2027.0367	 0.0013
2028.9654	 0.0013
2030.8941	 0.0014
2032.8227	 0.0014
2034.7514	 0.0014
2036.6801	 0.0014
2038.6088	 0.0014
2040.5374	 0.0014
2042.4661	 0.0015
2044.3948	 0.0014
2046.3234	 0.0014
2048.2521	 0.0014
2050.1808	 0.0014
2052.1095	 0.0014
2054.0381	 0.0014
2055.9668	 0.0014
2057.8955	 0.0014
2059.8242	 0.0014
2061.7528	 0.0014
2063.6815	 0.0015
2065.6102	 0.0015
2067.5389	 0.0015
2069.4675	 0.0014
2071.3962	 0.0014
2073.3249	 0.0014
2075.2536	 0.0014
2077.1822	 0.0014
2079.1109	 0.0014
2081.0396	 0.0014
2082.9683	 0.0014
2084.8969	 0.0014
2086.8256	 0.0014
2088.7543	 0.0015
2090.6830	 0.0015
2092.6116	 0.0014
2094.5403	 0.0014
2096.4690	 0.0015
2098.3977	 0.0015
2100.3263	 0.0014
2102.2550	 0.0014
2104.1837	 0.0014
2106.1124	 0.0014
2108.0410	 0.0014
2109.9697	 0.0014
2111.8984	 0.0014
2113.8271	 0.0015
2115.7557	 0.0015
2117.6844	 0.0015
2119.6131	 0.0015
2121.5417	 0.0015
2123.4704	 0.0015
2125.3991	 0.0015
2127.3278	 0.0015
2129.2564	 0.0015
2131.1851	 0.0014
2133.1138	 0.0015
2135.0425	 0.0015
2136.9711	 0.0015
2138.8998	 0.0014
2140.8285	 0.0014
2142.7572	 0.0014
2144.6858	 0.0015
2146.6145	 0.0014
2148.5432	 0.0014
2150.4719	 0.0014
2152.4005	 0.0014
2154.3292	 0.0014
2156.2579	 0.0014
2158.1866	 0.0014
2160.1152	 0.0014
2162.0439	 0.0014
2163.9726	 0.0014
2165.9013	 0.0014
2167.8299	 0.0014
2169.7586	 0.0014
2171.6873	 0.0014
2173.6160	 0.0014
2175.5446	 0.0014
2177.4733	 0.0013
2179.4020	 0.0013
2181.3307	 0.0013
2183.2593	 0.0013
2185.1880	 0.0013
2187.1167	 0.0013
2189.0453	 0.0013
2190.9740	 0.0013
2192.9027	 0.0013
2194.8314	 0.0013
2196.7600	 0.0013
2198.6887	 0.0013
2200.6174	 0.0013
2202.5461	 0.0013
2204.4747	 0.0013
2206.4034	 0.0013
2208.3321	 0.0013
2210.2608	 0.0013
2212.1894	 0.0013
2214.1181	 0.0013
2216.0468	 0.0013
2217.9755	 0.0013
2219.9041	 0.0013
2221.8328	 0.0013
2223.7615	 0.0013
2225.6902	 0.0013
2227.6188	 0.0013
2229.5475	 0.0013
2231.4762	 0.0013
2233.4049	 0.0013
2235.3335	 0.0013
2237.2622	 0.0013
2239.1909	 0.0014
2241.1196	 0.0014
2243.0482	 0.0014
2244.9769	 0.0014
2246.9056	 0.0014
2248.8343	 0.0015
2250.7629	 0.0015
2252.6916	 0.0016
2254.6203	 0.0016
2256.5490	 0.0017
2258.4776	 0.0017
2260.4063	 0.0018
2262.3350	 0.0018
2264.2636	 0.0019
2266.1923	 0.0019
2268.1210	 0.0019
2270.0497	 0.0019
2271.9783	 0.0019
2273.9070	 0.0019
2275.8357	 0.0019
2277.7644	 0.0019
2279.6930	 0.0018
2281.6217	 0.0017
2283.5504	 0.0017
2285.4791	 0.0019
2287.4077	 0.0022
2289.3364	 0.0026
2291.2651	 0.0029
2293.1938	 0.0033
2295.1224	 0.0037
2297.0511	 0.0042
2298.9798	 0.0047
2300.9085	 0.0053
2302.8371	 0.0058
2304.7658	 0.0066
2306.6945	 0.0076
2308.6232	 0.0086
2310.5518	 0.0097
2312.4805	 0.0104
2314.4092	 0.0108
2316.3379	 0.0116
2318.2665	 0.0130
2320.1952	 0.0147
2322.1239	 0.0161
2324.0526	 0.0169
2325.9812	 0.0175
2327.9099	 0.0185
2329.8386	 0.0196
2331.7672	 0.0199
2333.6959	 0.0198
2335.6246	 0.0200
2337.5533	 0.0206
2339.4819	 0.0211
2341.4106	 0.0216
2343.3393	 0.0217
2345.2680	 0.0201
2347.1966	 0.0165
2349.1253	 0.0153
2351.0540	 0.0179
2352.9827	 0.0218
2354.9113	 0.0249
2356.8400	 0.0274
2358.7687	 0.0288
2360.6974	 0.0290
2362.6260	 0.0284
2364.5547	 0.0270
2366.4834	 0.0250
2368.4121	 0.0225
2370.3407	 0.0198
2372.2694	 0.0170
2374.1981	 0.0143
2376.1268	 0.0119
2378.0554	 0.0095
2379.9841	 0.0072
2381.9128	 0.0051
2383.8415	 0.0034
2385.7701	 0.0023
2387.6988	 0.0017
2389.6275	 0.0014
2391.5562	 0.0013
2393.4848	 0.0013
2395.4135	 0.0013
2397.3422	 0.0013
2399.2708	 0.0014
2401.1995	 0.0013
2403.1282	 0.0013
2405.0569	 0.0013
2406.9855	 0.0013
2408.9142	 0.0013
2410.8429	 0.0014
2412.7716	 0.0014
2414.7002	 0.0014
2416.6289	 0.0014
2418.5576	 0.0014
2420.4863	 0.0014
2422.4149	 0.0014
2424.3436	 0.0014
2426.2723	 0.0014
2428.2010	 0.0014
2430.1296	 0.0014
2432.0583	 0.0014
2433.9870	 0.0014
2435.9157	 0.0014
2437.8443	 0.0014
2439.7730	 0.0014
2441.7017	 0.0014
2443.6304	 0.0014
2445.5590	 0.0014
2447.4877	 0.0014
2449.4164	 0.0014
2451.3451	 0.0014
2453.2737	 0.0014
2455.2024	 0.0015
2457.1311	 0.0015
2459.0598	 0.0015
2460.9884	 0.0015
2462.9171	 0.0015
2464.8458	 0.0015
2466.7745	 0.0015
2468.7031	 0.0015
2470.6318	 0.0015
2472.5605	 0.0015
2474.4891	 0.0015
2476.4178	 0.0015
2478.3465	 0.0015
2480.2752	 0.0015
2482.2038	 0.0015
2484.1325	 0.0015
2486.0612	 0.0015
2487.9899	 0.0015
2489.9185	 0.0015
2491.8472	 0.0015
2493.7759	 0.0015
2495.7046	 0.0015
2497.6332	 0.0015
2499.5619	 0.0015
2501.4906	 0.0015
2503.4193	 0.0015
2505.3479	 0.0015
2507.2766	 0.0016
2509.2053	 0.0016
2511.1340	 0.0015
2513.0626	 0.0015
2514.9913	 0.0016
2516.9200	 0.0016
2518.8487	 0.0016
2520.7773	 0.0016
2522.7060	 0.0016
2524.6347	 0.0016
2526.5634	 0.0016
2528.4920	 0.0016
2530.4207	 0.0016
2532.3494	 0.0016
2534.2781	 0.0016
2536.2067	 0.0016
2538.1354	 0.0016
2540.0641	 0.0016
2541.9927	 0.0016
2543.9214	 0.0016
2545.8501	 0.0016
2547.7788	 0.0016
2549.7074	 0.0016
2551.6361	 0.0016
2553.5648	 0.0016
2555.4935	 0.0016
2557.4221	 0.0016
2559.3508	 0.0016
2561.2795	 0.0016
2563.2082	 0.0017
2565.1368	 0.0017
2567.0655	 0.0017
2568.9942	 0.0017
2570.9229	 0.0017
2572.8515	 0.0017
2574.7802	 0.0017
2576.7089	 0.0017
2578.6376	 0.0017
2580.5662	 0.0017
2582.4949	 0.0017
2584.4236	 0.0017
2586.3523	 0.0017
2588.2809	 0.0017
2590.2096	 0.0017
2592.1383	 0.0017
2594.0670	 0.0017
2595.9956	 0.0017
2597.9243	 0.0017
2599.8530	 0.0017
2601.7817	 0.0017
2603.7103	 0.0017
2605.6390	 0.0017
2607.5677	 0.0018
2609.4964	 0.0018
2611.4250	 0.0018
2613.3537	 0.0018
2615.2824	 0.0018
2617.2110	 0.0018
2619.1397	 0.0018
2621.0684	 0.0018
2622.9971	 0.0018
2624.9257	 0.0018
2626.8544	 0.0018
2628.7831	 0.0018
2630.7118	 0.0019
2632.6404	 0.0019
2634.5691	 0.0019
2636.4978	 0.0019
2638.4265	 0.0019
2640.3551	 0.0019
2642.2838	 0.0019
2644.2125	 0.0019
2646.1412	 0.0019
2648.0698	 0.0019
2649.9985	 0.0019
2651.9272	 0.0019
2653.8559	 0.0019
2655.7845	 0.0020
2657.7132	 0.0020
2659.6419	 0.0020
2661.5706	 0.0020
2663.4992	 0.0020
2665.4279	 0.0020
2667.3566	 0.0020
2669.2853	 0.0020
2671.2139	 0.0020
2673.1426	 0.0020
2675.0713	 0.0020
2677.0000	 0.0020
2678.9286	 0.0020
2680.8573	 0.0020
2682.7860	 0.0020
2684.7146	 0.0021
2686.6433	 0.0021
2688.5720	 0.0021
2690.5007	 0.0021
2692.4293	 0.0021
2694.3580	 0.0021
2696.2867	 0.0021
2698.2154	 0.0021
2700.1440	 0.0021
2702.0727	 0.0021
2704.0014	 0.0021
2705.9301	 0.0022
2707.8587	 0.0022
2709.7874	 0.0022
2711.7161	 0.0022
2713.6448	 0.0022
2715.5734	 0.0022
2717.5021	 0.0022
2719.4308	 0.0023
2721.3595	 0.0023
2723.2881	 0.0023
2725.2168	 0.0023
2727.1455	 0.0023
2729.0742	 0.0023
2731.0028	 0.0023
2732.9315	 0.0023
2734.8602	 0.0023
2736.7889	 0.0023
2738.7175	 0.0024
2740.6462	 0.0023
2742.5749	 0.0023
2744.5036	 0.0024
2746.4322	 0.0024
2748.3609	 0.0023
2750.2896	 0.0024
2752.2182	 0.0024
2754.1469	 0.0024
