DATATYPE	 IR Spectrum
XYUNITS	 Wavenumber;Energy
DECIMALSYMBOL	 .
0.0000	 0.0069
1.9287	 0.0056
3.8573	 0.0016
5.7860	 -0.0004
7.7147	 0.0001
9.6434	 -0.0001
11.5720	 0.0000
13.5007	 0.0000
15.4294	 0.0000
17.3581	 0.0000
19.2867	 0.0000
21.2154	 0.0000
23.1441	 0.0000
25.0728	 0.0000
27.0014	 0.0000
28.9301	 0.0000
30.8588	 0.0000
32.7875	 0.0000
34.7161	 0.0000
36.6448	 0.0000
38.5735	 0.0000
40.5022	 0.0000
42.4308	 0.0000
44.3595	 0.0000
46.2882	 0.0000
48.2169	 0.0000
50.1455	 0.0000
52.0742	 0.0000
54.0029	 0.0000
55.9316	 0.0000
57.8602	 0.0000
59.7889	 0.0000
61.7176	 0.0000
63.6463	 0.0000
65.5749	 0.0000
67.5036	 0.0000
69.4323	 0.0000
71.3609	 0.0000
73.2896	 0.0000
75.2183	 0.0000
77.1470	 0.0000
79.0756	 0.0000
81.0043	 0.0000
82.9330	 0.0000
84.8617	 0.0000
86.7903	 0.0000
88.7190	 0.0000
90.6477	 0.0000
92.5764	 0.0000
94.5050	 0.0000
96.4337	 0.0000
98.3624	 0.0001
100.2911	 0.0001
102.2197	 0.0000
104.1484	 0.0000
106.0771	 0.0000
108.0058	 0.0000
109.9344	 0.0000
111.8631	 0.0000
113.7918	 0.0000
115.7205	 0.0000
117.6491	 0.0000
119.5778	 0.0000
121.5065	 0.0000
123.4352	 0.0000
125.3638	 0.0000
127.2925	 0.0000
129.2212	 0.0000
131.1499	 0.0000
133.0785	 0.0000
135.0072	 0.0000
136.9359	 0.0000
138.8646	 0.0000
140.7932	 0.0000
142.7219	 0.0000
144.6506	 0.0000
146.5792	 0.0000
148.5079	 0.0000
150.4366	 0.0000
152.3653	 0.0000
154.2939	 0.0000
156.2226	 0.0000
158.1513	 0.0000
160.0800	 0.0000
162.0086	 0.0000
163.9373	 0.0000
165.8660	 0.0000
167.7947	 0.0000
169.7233	 0.0000
171.6520	 0.0000
173.5807	 0.0000
175.5094	 0.0000
177.4380	 0.0000
179.3667	 0.0000
181.2954	 0.0000
183.2241	 0.0000
185.1527	 0.0000
187.0814	 0.0000
189.0101	 0.0000
190.9388	 0.0000
192.8674	 0.0000
194.7961	 0.0000
196.7248	 0.0000
198.6535	 0.0000
200.5821	 0.0000
202.5108	 0.0000
204.4395	 0.0000
206.3682	 0.0000
208.2968	 0.0000
210.2255	 0.0000
212.1542	 0.0000
214.0828	 0.0000
216.0115	 0.0000
217.9402	 0.0000
219.8689	 0.0000
221.7975	 0.0000
223.7262	 0.0000
225.6549	 0.0000
227.5836	 0.0000
229.5122	 0.0000
231.4409	 0.0000
233.3696	 0.0000
235.2983	 0.0000
237.2269	 0.0000
239.1556	 0.0000
241.0843	 0.0000
243.0130	 0.0000
244.9416	 0.0000
246.8703	 0.0000
248.7990	 0.0000
250.7277	 0.0000
252.6563	 0.0000
254.5850	 0.0000
256.5137	 0.0000
258.4424	 0.0000
260.3710	 0.0000
262.2997	 0.0000
264.2284	 0.0000
266.1571	 0.0000
268.0857	 0.0000
270.0144	 0.0000
271.9431	 0.0000
273.8718	 0.0000
275.8004	 0.0000
277.7291	 0.0000
279.6578	 0.0000
281.5865	 0.0000
283.5151	 0.0000
285.4438	 0.0000
287.3725	 0.0000
289.3011	 0.0000
291.2298	 0.0000
293.1585	 0.0000
295.0872	 0.0000
297.0158	 0.0000
298.9445	 0.0000
300.8732	 0.0000
302.8019	 0.0000
304.7305	 0.0000
306.6592	 0.0000
308.5879	 0.0000
310.5166	 0.0000
312.4452	 0.0000
314.3739	 0.0000
316.3026	 0.0000
318.2313	 0.0000
320.1599	 0.0000
322.0886	 0.0000
324.0173	 0.0000
325.9460	 0.0000
327.8746	 0.0000
329.8033	 0.0000
331.7320	 0.0000
333.6607	 0.0000
335.5893	 0.0000
337.5180	 0.0000
339.4467	 0.0000
341.3754	 0.0000
343.3040	 0.0000
345.2327	 0.0000
347.1614	 0.0000
349.0901	 0.0000
351.0187	 0.0000
352.9474	 0.0000
354.8761	 0.0000
356.8047	 0.0000
358.7334	 0.0000
360.6621	 0.0000
362.5908	 0.0000
364.5194	 0.0000
366.4481	 0.0000
368.3768	 0.0000
370.3055	 0.0000
372.2341	 0.0000
374.1628	 0.0000
376.0915	 0.0000
378.0202	 0.0000
379.9488	 0.0000
381.8775	 0.0000
383.8062	 0.0000
385.7349	 0.0000
387.6635	 0.0000
389.5922	 0.0000
391.5209	 0.0000
393.4496	 0.0000
395.3782	 0.0000
397.3069	 0.0000
399.2356	 0.0000
401.1643	 0.0000
403.0929	 0.0000
405.0216	 0.0000
406.9503	 0.0000
408.8790	 0.0000
410.8076	 0.0000
412.7363	 0.0000
414.6650	 0.0000
416.5937	 0.0000
418.5223	 0.0000
420.4510	 0.0000
422.3797	 0.0000
424.3083	 0.0000
426.2370	 0.0000
428.1657	 0.0000
430.0944	 0.0000
432.0230	 0.0000
433.9517	 0.0000
435.8804	 0.0000
437.8091	 0.0000
439.7377	 0.0000
441.6664	 0.0000
443.5951	 0.0000
445.5238	 0.0000
447.4524	 0.0000
449.3811	 0.0000
451.3098	 0.0000
453.2385	 0.0000
455.1671	 0.0000
457.0958	 0.0000
459.0245	 0.0000
460.9532	 0.0000
462.8818	 0.0000
464.8105	 0.0000
466.7392	 0.0000
468.6679	 0.0000
470.5965	 0.0000
472.5252	 0.0000
474.4539	 0.0000
476.3826	 0.0000
478.3112	 0.0000
480.2399	 0.0000
482.1686	 0.0000
484.0973	 0.0000
486.0259	 0.0000
487.9546	 0.0000
489.8833	 0.0000
491.8120	 0.0000
493.7406	 0.0000
495.6693	 0.0000
497.5980	 0.0000
499.5266	 0.0000
501.4553	 0.0000
503.3840	 0.0000
505.3127	 0.0000
507.2413	 0.0000
509.1700	 0.0000
511.0987	 0.0000
513.0274	 0.0000
514.9560	 0.0001
516.8847	 0.0001
518.8134	 0.0001
520.7421	 0.0001
522.6707	 0.0002
524.5994	 0.0002
526.5281	 0.0003
528.4568	 0.0003
530.3854	 0.0004
532.3141	 0.0005
534.2428	 0.0006
536.1715	 0.0007
538.1001	 0.0008
540.0288	 0.0009
541.9575	 0.0010
543.8862	 0.0010
545.8148	 0.0011
547.7435	 0.0012
549.6722	 0.0013
551.6009	 0.0014
553.5295	 0.0015
555.4582	 0.0015
557.3869	 0.0015
559.3156	 0.0015
561.2442	 0.0016
563.1729	 0.0016
565.1016	 0.0016
567.0302	 0.0015
568.9589	 0.0015
570.8876	 0.0016
572.8163	 0.0016
574.7449	 0.0016
576.6736	 0.0017
578.6023	 0.0019
580.5310	 0.0021
582.4596	 0.0024
584.3883	 0.0027
586.3170	 0.0030
588.2457	 0.0033
590.1743	 0.0036
592.1030	 0.0039
594.0317	 0.0042
595.9604	 0.0046
597.8890	 0.0048
599.8177	 0.0050
601.7464	 0.0051
603.6751	 0.0051
605.6037	 0.0050
607.5324	 0.0048
609.4611	 0.0046
611.3898	 0.0045
613.3184	 0.0044
615.2471	 0.0043
617.1758	 0.0044
619.1045	 0.0047
621.0331	 0.0051
622.9618	 0.0057
624.8905	 0.0063
626.8192	 0.0072
628.7478	 0.0080
630.6765	 0.0086
632.6052	 0.0091
634.5339	 0.0095
636.4625	 0.0100
638.3912	 0.0106
640.3199	 0.0115
642.2485	 0.0124
644.1772	 0.0134
646.1059	 0.0142
648.0346	 0.0149
649.9632	 0.0156
651.8919	 0.0164
653.8206	 0.0173
655.7493	 0.0183
657.6779	 0.0194
659.6066	 0.0208
661.5353	 0.0222
663.4640	 0.0240
665.3926	 0.0226
667.3213	 0.0170
669.2500	 0.0184
671.1787	 0.0256
673.1073	 0.0283
675.0360	 0.0287
676.9647	 0.0292
678.8934	 0.0298
680.8220	 0.0305
682.7507	 0.0312
684.6794	 0.0321
686.6081	 0.0329
688.5367	 0.0337
690.4654	 0.0347
692.3941	 0.0358
694.3228	 0.0367
696.2514	 0.0376
698.1801	 0.0386
700.1088	 0.0395
702.0375	 0.0403
703.9661	 0.0410
705.8948	 0.0417
707.8235	 0.0424
709.7521	 0.0431
711.6808	 0.0437
713.6095	 0.0443
715.5382	 0.0448
717.4668	 0.0451
719.3955	 0.0450
721.3242	 0.0455
723.2529	 0.0466
725.1815	 0.0473
727.1102	 0.0478
729.0389	 0.0482
730.9676	 0.0487
732.8962	 0.0491
734.8249	 0.0496
736.7536	 0.0500
738.6823	 0.0503
740.6109	 0.0506
742.5396	 0.0510
744.4683	 0.0514
746.3970	 0.0519
748.3256	 0.0523
750.2543	 0.0527
752.1830	 0.0531
754.1117	 0.0535
756.0403	 0.0539
757.9690	 0.0543
759.8977	 0.0546
761.8264	 0.0550
763.7550	 0.0553
765.6837	 0.0557
767.6124	 0.0560
769.5411	 0.0563
771.4697	 0.0566
773.3984	 0.0569
775.3271	 0.0572
777.2557	 0.0575
779.1844	 0.0578
781.1131	 0.0582
783.0418	 0.0585
784.9704	 0.0588
786.8991	 0.0592
788.8278	 0.0595
790.7565	 0.0598
792.6851	 0.0601
794.6138	 0.0604
796.5425	 0.0607
798.4712	 0.0610
800.3998	 0.0614
802.3285	 0.0617
804.2572	 0.0621
806.1859	 0.0624
808.1145	 0.0628
810.0432	 0.0631
811.9719	 0.0635
813.9006	 0.0638
815.8292	 0.0641
817.7579	 0.0645
819.6866	 0.0648
821.6153	 0.0651
823.5439	 0.0655
825.4726	 0.0659
827.4013	 0.0662
829.3300	 0.0666
831.2586	 0.0670
833.1873	 0.0674
835.1160	 0.0677
837.0447	 0.0681
838.9733	 0.0684
840.9020	 0.0687
842.8307	 0.0690
844.7594	 0.0693
846.6880	 0.0696
848.6167	 0.0699
850.5454	 0.0703
852.4740	 0.0706
854.4027	 0.0709
856.3314	 0.0712
858.2601	 0.0715
860.1887	 0.0718
862.1174	 0.0721
864.0461	 0.0724
865.9748	 0.0728
867.9034	 0.0731
869.8321	 0.0734
871.7608	 0.0736
873.6895	 0.0739
875.6181	 0.0742
877.5468	 0.0746
879.4755	 0.0749
881.4042	 0.0752
883.3328	 0.0756
885.2615	 0.0759
887.1902	 0.0761
889.1189	 0.0764
891.0475	 0.0767
892.9762	 0.0770
894.9049	 0.0772
896.8336	 0.0775
898.7622	 0.0777
900.6909	 0.0779
902.6196	 0.0781
904.5483	 0.0783
906.4769	 0.0785
908.4056	 0.0787
910.3343	 0.0789
912.2630	 0.0790
914.1916	 0.0792
916.1203	 0.0794
918.0490	 0.0795
919.9776	 0.0797
921.9063	 0.0798
923.8350	 0.0799
925.7637	 0.0801
927.6923	 0.0802
929.6210	 0.0803
931.5497	 0.0804
933.4784	 0.0804
935.4070	 0.0805
937.3357	 0.0806
939.2644	 0.0806
941.1931	 0.0807
943.1217	 0.0807
945.0504	 0.0808
946.9791	 0.0808
948.9078	 0.0808
950.8364	 0.0808
952.7651	 0.0809
954.6938	 0.0809
956.6225	 0.0810
958.5511	 0.0810
960.4798	 0.0810
962.4085	 0.0811
964.3372	 0.0811
966.2658	 0.0812
968.1945	 0.0812
970.1232	 0.0813
972.0519	 0.0813
973.9805	 0.0813
975.9092	 0.0814
977.8379	 0.0814
979.7666	 0.0814
981.6952	 0.0815
983.6239	 0.0815
985.5526	 0.0815
987.4812	 0.0815
989.4099	 0.0815
991.3386	 0.0815
993.2673	 0.0814
995.1959	 0.0814
997.1246	 0.0814
999.0533	 0.0813
1000.9820	 0.0813
1002.9106	 0.0812
1004.8393	 0.0812
1006.7680	 0.0811
1008.6967	 0.0810
1010.6253	 0.0809
1012.5540	 0.0808
1014.4827	 0.0808
1016.4114	 0.0807
1018.3400	 0.0807
1020.2687	 0.0807
1022.1974	 0.0807
1024.1261	 0.0808
1026.0547	 0.0808
1027.9834	 0.0809
1029.9121	 0.0809
1031.8408	 0.0810
1033.7694	 0.0811
1035.6981	 0.0812
1037.6268	 0.0813
1039.5555	 0.0814
1041.4841	 0.0815
1043.4128	 0.0816
1045.3415	 0.0817
1047.2702	 0.0819
1049.1988	 0.0820
1051.1275	 0.0822
1053.0562	 0.0824
1054.9849	 0.0826
1056.9135	 0.0829
1058.8422	 0.0832
1060.7709	 0.0835
1062.6995	 0.0838
1064.6282	 0.0842
1066.5569	 0.0846
1068.4856	 0.0850
1070.4142	 0.0854
1072.3429	 0.0859
1074.2716	 0.0864
1076.2003	 0.0869
1078.1289	 0.0874
1080.0576	 0.0879
1081.9863	 0.0884
1083.9150	 0.0889
1085.8436	 0.0894
1087.7723	 0.0899
1089.7010	 0.0904
1091.6297	 0.0908
1093.5583	 0.0913
1095.4870	 0.0918
1097.4157	 0.0923
1099.3444	 0.0927
1101.2730	 0.0932
1103.2017	 0.0936
1105.1304	 0.0941
1107.0591	 0.0946
1108.9877	 0.0950
1110.9164	 0.0955
1112.8451	 0.0960
1114.7738	 0.0965
1116.7024	 0.0971
1118.6311	 0.0976
1120.5598	 0.0981
1122.4885	 0.0987
1124.4171	 0.0993
1126.3458	 0.1000
1128.2745	 0.1006
1130.2031	 0.1012
1132.1318	 0.1018
1134.0605	 0.1024
1135.9892	 0.1030
1137.9178	 0.1036
1139.8465	 0.1042
1141.7752	 0.1048
1143.7039	 0.1053
1145.6325	 0.1059
1147.5612	 0.1065
1149.4899	 0.1070
1151.4186	 0.1076
1153.3472	 0.1081
1155.2759	 0.1087
1157.2046	 0.1093
1159.1333	 0.1099
1161.0619	 0.1106
1162.9906	 0.1113
1164.9193	 0.1119
1166.8480	 0.1126
1168.7766	 0.1133
1170.7053	 0.1139
1172.6340	 0.1144
1174.5627	 0.1150
1176.4913	 0.1158
1178.4200	 0.1166
1180.3487	 0.1172
1182.2774	 0.1178
1184.2060	 0.1184
1186.1347	 0.1189
1188.0634	 0.1194
1189.9921	 0.1201
1191.9207	 0.1206
1193.8494	 0.1211
1195.7781	 0.1216
1197.7068	 0.1220
1199.6354	 0.1226
1201.5641	 0.1231
1203.4928	 0.1236
1205.4214	 0.1240
1207.3501	 0.1245
1209.2788	 0.1249
1211.2075	 0.1252
1213.1361	 0.1257
1215.0648	 0.1263
1216.9935	 0.1267
1218.9222	 0.1271
1220.8508	 0.1276
1222.7795	 0.1280
1224.7082	 0.1283
1226.6369	 0.1288
1228.5655	 0.1294
1230.4942	 0.1298
1232.4229	 0.1302
1234.3516	 0.1306
1236.2802	 0.1310
1238.2089	 0.1313
1240.1376	 0.1317
1242.0663	 0.1319
1243.9949	 0.1322
1245.9236	 0.1326
1247.8523	 0.1331
1249.7810	 0.1334
1251.7096	 0.1336
1253.6383	 0.1338
1255.5670	 0.1341
1257.4957	 0.1340
1259.4243	 0.1336
1261.3530	 0.1340
1263.2817	 0.1348
1265.2104	 0.1353
1267.1390	 0.1357
1269.0677	 0.1360
1270.9964	 0.1363
1272.9250	 0.1374
1274.8537	 0.1386
1276.7824	 0.1393
1278.7111	 0.1396
1280.6397	 0.1400
1282.5684	 0.1405
1284.4971	 0.1408
1286.4258	 0.1405
1288.3544	 0.1405
1290.2831	 0.1413
1292.2118	 0.1421
1294.1405	 0.1424
1296.0691	 0.1425
1297.9978	 0.1429
1299.9265	 0.1434
1301.8552	 0.1437
1303.7838	 0.1439
1305.7125	 0.1439
1307.6412	 0.1439
1309.5699	 0.1441
1311.4985	 0.1432
1313.4272	 0.1422
1315.3559	 0.1426
1317.2846	 0.1416
1319.2132	 0.1414
1321.1419	 0.1440
1323.0706	 0.1462
1324.9993	 0.1469
1326.9279	 0.1473
1328.8566	 0.1475
1330.7853	 0.1479
1332.7140	 0.1483
1334.6426	 0.1470
1336.5713	 0.1421
1338.5000	 0.1360
1340.4286	 0.1375
1342.3573	 0.1458
1344.2860	 0.1498
1346.2147	 0.1499
1348.1433	 0.1494
1350.0720	 0.1495
1352.0007	 0.1500
1353.9294	 0.1492
1355.8580	 0.1492
1357.7867	 0.1498
1359.7154	 0.1450
1361.6441	 0.1357
1363.5727	 0.1370
1365.5014	 0.1472
1367.4301	 0.1489
1369.3588	 0.1483
1371.2874	 0.1473
1373.2161	 0.1389
1375.1448	 0.1387
1377.0735	 0.1468
1379.0021	 0.1503
1380.9308	 0.1518
1382.8595	 0.1534
1384.7882	 0.1480
1386.7168	 0.1375
1388.6455	 0.1404
1390.5742	 0.1504
1392.5029	 0.1431
1394.4315	 0.1295
1396.3602	 0.1290
1398.2889	 0.1308
1400.2176	 0.1384
1402.1462	 0.1480
1404.0749	 0.1441
1406.0036	 0.1449
1407.9323	 0.1522
1409.8609	 0.1526
1411.7896	 0.1522
1413.7183	 0.1528
1415.6469	 0.1455
1417.5756	 0.1242
1419.5043	 0.1179
1421.4330	 0.1365
1423.3616	 0.1444
1425.2903	 0.1480
1427.2190	 0.1516
1429.1477	 0.1446
1431.0763	 0.1453
1433.0050	 0.1499
1434.9337	 0.1330
1436.8624	 0.1206
1438.7910	 0.1411
1440.7197	 0.1575
1442.6484	 0.1583
1444.5771	 0.1565
1446.5057	 0.1468
1448.4344	 0.1434
1450.3631	 0.1503
1452.2918	 0.1515
1454.2204	 0.1331
1456.1491	 0.0994
1458.0778	 0.0983
1460.0065	 0.1341
1461.9351	 0.1506
1463.8638	 0.1379
1465.7925	 0.1375
1467.7212	 0.1542
1469.6498	 0.1482
1471.5785	 0.1199
1473.5072	 0.1137
1475.4359	 0.1300
1477.3645	 0.1476
1479.2932	 0.1592
1481.2219	 0.1603
1483.1505	 0.1626
1485.0792	 0.1576
1487.0079	 0.1399
1488.9366	 0.1246
1490.8652	 0.1320
1492.7939	 0.1531
1494.7226	 0.1457
1496.6513	 0.1274
1498.5799	 0.1331
1500.5086	 0.1504
1502.4373	 0.1561
1504.3660	 0.1240
1506.2946	 0.0835
1508.2233	 0.0945
1510.1520	 0.1273
1512.0807	 0.1418
1514.0093	 0.1409
1515.9380	 0.1260
1517.8667	 0.1195
1519.7954	 0.1095
1521.7240	 0.1007
1523.6527	 0.1157
1525.5814	 0.1249
1527.5101	 0.1315
1529.4387	 0.1452
1531.3674	 0.1369
1533.2961	 0.1191
1535.2248	 0.1268
1537.1534	 0.1179
1539.0821	 0.0808
1541.0108	 0.0766
1542.9395	 0.0989
1544.8681	 0.1213
1546.7968	 0.1432
1548.7255	 0.1467
1550.6542	 0.1442
1552.5828	 0.1406
1554.5115	 0.1289
1556.4402	 0.1061
1558.3688	 0.0718
1560.2975	 0.0888
1562.2262	 0.1392
1564.1549	 0.1544
1566.0835	 0.1543
1568.0122	 0.1426
1569.9409	 0.1344
1571.8696	 0.1546
1573.7982	 0.1509
1575.7269	 0.1245
1577.6556	 0.1372
1579.5843	 0.1648
1581.5129	 0.1707
1583.4416	 0.1707
1585.3703	 0.1714
1587.2990	 0.1710
1589.2276	 0.1699
1591.1563	 0.1691
1593.0850	 0.1676
1595.0137	 0.1664
1596.9423	 0.1686
1598.8710	 0.1701
1600.7997	 0.1681
1602.7284	 0.1664
1604.6570	 0.1668
1606.5857	 0.1646
1608.5144	 0.1614
1610.4431	 0.1629
1612.3717	 0.1661
1614.3004	 0.1506
1616.2291	 0.1254
1618.1578	 0.1365
1620.0864	 0.1567
1622.0151	 0.1442
1623.9438	 0.1382
1625.8724	 0.1480
1627.8011	 0.1502
1629.7298	 0.1584
1631.6585	 0.1636
1633.5871	 0.1364
1635.5158	 0.1090
1637.4445	 0.1277
1639.3732	 0.1573
1641.3018	 0.1664
1643.2305	 0.1593
1645.1592	 0.1293
1647.0879	 0.1144
1649.0165	 0.1359
1650.9452	 0.1212
1652.8739	 0.0815
1654.8026	 0.1081
1656.7312	 0.1590
1658.6599	 0.1740
1660.5886	 0.1635
1662.5173	 0.1507
1664.4459	 0.1626
1666.3746	 0.1675
1668.3033	 0.1415
1670.2320	 0.1338
1672.1606	 0.1497
1674.0893	 0.1436
1676.0180	 0.1446
1677.9467	 0.1645
1679.8753	 0.1651
1681.8040	 0.1388
1683.7327	 0.1056
1685.6614	 0.1219
1687.5900	 0.1586
1689.5187	 0.1671
1691.4474	 0.1759
1693.3760	 0.1626
1695.3047	 0.1286
1697.2334	 0.1226
1699.1621	 0.1098
1701.0907	 0.1127
1703.0194	 0.1465
1704.9481	 0.1513
1706.8768	 0.1571
1708.8054	 0.1749
1710.7341	 0.1798
1712.6628	 0.1697
1714.5915	 0.1458
1716.5201	 0.1219
1718.4488	 0.1290
1720.3775	 0.1661
1722.3062	 0.1839
1724.2348	 0.1849
1726.1635	 0.1892
1728.0922	 0.1822
1730.0209	 0.1704
1731.9495	 0.1462
1733.8782	 0.1221
1735.8069	 0.1471
1737.7356	 0.1687
1739.6642	 0.1599
1741.5929	 0.1644
1743.5216	 0.1712
1745.4503	 0.1702
1747.3789	 0.1615
1749.3076	 0.1486
1751.2363	 0.1516
1753.1650	 0.1750
1755.0936	 0.1816
1757.0223	 0.1758
1758.9510	 0.1801
1760.8797	 0.1720
1762.8083	 0.1747
1764.7370	 0.1905
1766.6657	 0.1829
1768.5943	 0.1707
1770.5230	 0.1560
1772.4517	 0.1464
1774.3804	 0.1672
1776.3090	 0.1889
1778.2377	 0.1905
1780.1664	 0.1857
1782.0951	 0.1877
1784.0237	 0.1886
1785.9524	 0.1910
1787.8811	 0.1968
1789.8098	 0.1816
1791.7384	 0.1601
1793.6671	 0.1685
1795.5958	 0.1878
1797.5245	 0.1896
1799.4531	 0.1814
1801.3818	 0.1808
1803.3105	 0.1918
1805.2392	 0.1998
1807.1678	 0.1989
1809.0965	 0.1928
1811.0252	 0.1901
1812.9539	 0.1974
1814.8825	 0.2026
1816.8112	 0.2014
1818.7399	 0.2019
1820.6686	 0.2037
1822.5972	 0.1968
1824.5259	 0.1851
1826.4546	 0.1858
1828.3833	 0.1806
1830.3119	 0.1764
1832.2406	 0.1936
1834.1693	 0.2033
1836.0979	 0.2011
1838.0266	 0.2014
1839.9553	 0.2035
1841.8840	 0.1895
1843.8126	 0.1694
1845.7413	 0.1781
1847.6700	 0.1958
1849.5987	 0.2025
1851.5273	 0.2060
1853.4560	 0.2066
1855.3847	 0.2065
1857.3134	 0.2058
1859.2420	 0.2051
1861.1707	 0.2055
1863.0994	 0.2059
1865.0281	 0.2011
1866.9567	 0.1855
1868.8854	 0.1765
1870.8141	 0.1907
1872.7428	 0.2056
1874.6714	 0.2078
1876.6001	 0.2077
1878.5288	 0.2075
1880.4575	 0.2078
1882.3861	 0.2074
1884.3148	 0.2068
1886.2435	 0.2059
1888.1722	 0.1983
1890.1008	 0.1959
1892.0295	 0.2036
1893.9582	 0.2043
1895.8869	 0.2035
1897.8155	 0.2075
1899.7442	 0.2089
1901.6729	 0.2086
1903.6016	 0.2085
1905.5302	 0.2078
1907.4589	 0.2048
1909.3876	 0.2026
1911.3162	 0.2055
1913.2449	 0.2093
1915.1736	 0.2059
1917.1023	 0.1952
1919.0309	 0.1959
1920.9596	 0.2014
1922.8883	 0.1998
1924.8170	 0.2047
1926.7456	 0.2101
1928.6743	 0.2103
1930.6030	 0.2103
1932.5317	 0.2100
1934.4603	 0.2102
1936.3890	 0.2105
1938.3177	 0.2107
1940.2464	 0.2055
1942.1750	 0.1981
1944.1037	 0.2012
1946.0324	 0.2077
1947.9611	 0.2099
1949.8897	 0.2111
1951.8184	 0.2112
1953.7471	 0.2105
1955.6758	 0.2104
1957.6044	 0.2111
1959.5331	 0.2112
1961.4618	 0.2111
1963.3905	 0.2111
1965.3191	 0.2079
1967.2478	 0.2054
1969.1765	 0.2088
1971.1052	 0.2119
1973.0338	 0.2121
1974.9625	 0.2121
1976.8912	 0.2121
1978.8198	 0.2122
1980.7485	 0.2122
1982.6772	 0.2123
1984.6059	 0.2123
1986.5345	 0.2112
1988.4632	 0.2096
1990.3919	 0.2062
1992.3206	 0.2046
1994.2492	 0.2094
1996.1779	 0.2126
1998.1066	 0.2123
2000.0353	 0.2124
2001.9639	 0.2127
2003.8926	 0.2128
2005.8213	 0.2127
2007.7500	 0.2125
2009.6786	 0.2126
2011.6073	 0.2129
2013.5360	 0.2126
2015.4647	 0.2102
2017.3933	 0.2088
2019.3220	 0.2109
2021.2507	 0.2127
2023.1794	 0.2128
2025.1080	 0.2129
2027.0367	 0.2130
2028.9654	 0.2132
2030.8941	 0.2133
2032.8227	 0.2133
2034.7514	 0.2133
2036.6801	 0.2133
2038.6088	 0.2129
2040.5374	 0.2119
2042.4661	 0.2120
2044.3948	 0.2129
2046.3234	 0.2133
2048.2521	 0.2135
2050.1808	 0.2135
2052.1095	 0.2136
2054.0381	 0.2136
2055.9668	 0.2136
2057.8955	 0.2136
2059.8242	 0.2134
2061.7528	 0.2133
2063.6815	 0.2121
2065.6102	 0.2118
2067.5389	 0.2132
2069.4675	 0.2139
2071.3962	 0.2138
2073.3249	 0.2138
2075.2536	 0.2138
2077.1822	 0.2138
2079.1109	 0.2139
2081.0396	 0.2140
2082.9683	 0.2140
2084.8969	 0.2140
2086.8256	 0.2139
2088.7543	 0.2134
2090.6830	 0.2134
2092.6116	 0.2140
2094.5403	 0.2142
2096.4690	 0.2142
2098.3977	 0.2142
2100.3263	 0.2143
2102.2550	 0.2143
2104.1837	 0.2143
2106.1124	 0.2143
2108.0410	 0.2143
2109.9697	 0.2144
2111.8984	 0.2144
2113.8271	 0.2142
2115.7557	 0.2142
2117.6844	 0.2144
2119.6131	 0.2145
2121.5417	 0.2145
2123.4704	 0.2145
2125.3991	 0.2145
2127.3278	 0.2145
2129.2564	 0.2145
2131.1851	 0.2146
2133.1138	 0.2145
2135.0425	 0.2144
2136.9711	 0.2143
2138.8998	 0.2144
2140.8285	 0.2146
2142.7572	 0.2146
2144.6858	 0.2146
2146.6145	 0.2146
2148.5432	 0.2146
2150.4719	 0.2146
2152.4005	 0.2146
2154.3292	 0.2146
2156.2579	 0.2147
2158.1866	 0.2147
2160.1152	 0.2146
2162.0439	 0.2145
2163.9726	 0.2146
2165.9013	 0.2147
2167.8299	 0.2147
2169.7586	 0.2147
2171.6873	 0.2146
2173.6160	 0.2146
2175.5446	 0.2147
2177.4733	 0.2147
2179.4020	 0.2146
2181.3307	 0.2146
2183.2593	 0.2146
2185.1880	 0.2146
2187.1167	 0.2146
2189.0453	 0.2146
2190.9740	 0.2146
2192.9027	 0.2146
2194.8314	 0.2145
