DATATYPE	 IR Spectrum
XYUNITS	 Wavenumber;Absorbance
DECIMALSYMBOL	 .
599.8177	 0.1560
601.7464	 0.1557
603.6751	 0.1551
605.6037	 0.1539
607.5324	 0.1522
609.4611	 0.1498
611.3898	 0.1477
613.3184	 0.1471
615.2471	 0.1465
617.1758	 0.1449
619.1045	 0.1434
621.0331	 0.1424
622.9618	 0.1409
624.8905	 0.1391
626.8192	 0.1379
628.7478	 0.1369
630.6765	 0.1360
632.6052	 0.1353
634.5339	 0.1343
636.4625	 0.1332
638.3912	 0.1328
640.3199	 0.1324
642.2485	 0.1315
644.1772	 0.1302
646.1059	 0.1293
648.0346	 0.1287
649.9632	 0.1281
651.8919	 0.1275
653.8206	 0.1272
655.7493	 0.1268
657.6779	 0.1263
659.6066	 0.1260
661.5353	 0.1256
663.4640	 0.1248
665.3926	 0.1245
667.3213	 0.1249
669.2500	 0.1231
671.1787	 0.1205
673.1073	 0.1184
675.0360	 0.1163
676.9647	 0.1142
678.8934	 0.1123
680.8220	 0.1107
682.7507	 0.1092
684.6794	 0.1081
686.6081	 0.1074
688.5367	 0.1065
690.4654	 0.1056
692.3941	 0.1049
694.3228	 0.1044
696.2514	 0.1037
698.1801	 0.1032
700.1088	 0.1026
702.0375	 0.1019
703.9661	 0.1011
705.8948	 0.1004
707.8235	 0.0995
709.7521	 0.0986
711.6808	 0.0979
713.6095	 0.0971
715.5382	 0.0962
717.4668	 0.0954
719.3955	 0.0946
721.3242	 0.0936
723.2529	 0.0924
725.1815	 0.0913
727.1102	 0.0901
729.0389	 0.0889
730.9676	 0.0878
732.8962	 0.0868
734.8249	 0.0860
736.7536	 0.0852
738.6823	 0.0845
740.6109	 0.0838
742.5396	 0.0830
744.4683	 0.0823
746.3970	 0.0815
748.3256	 0.0808
750.2543	 0.0801
752.1830	 0.0795
754.1117	 0.0788
756.0403	 0.0780
757.9690	 0.0773
759.8977	 0.0766
761.8264	 0.0758
763.7550	 0.0751
765.6837	 0.0743
767.6124	 0.0735
769.5411	 0.0728
771.4697	 0.0722
773.3984	 0.0716
775.3271	 0.0711
777.2557	 0.0708
779.1844	 0.0706
781.1131	 0.0702
783.0418	 0.0695
784.9704	 0.0685
786.8991	 0.0675
788.8278	 0.0666
790.7565	 0.0661
792.6851	 0.0656
794.6138	 0.0652
796.5425	 0.0647
798.4712	 0.0644
800.3998	 0.0640
802.3285	 0.0636
804.2572	 0.0632
806.1859	 0.0630
808.1145	 0.0627
810.0432	 0.0625
811.9719	 0.0623
813.9006	 0.0621
815.8292	 0.0619
817.7579	 0.0619
819.6866	 0.0618
821.6153	 0.0617
823.5439	 0.0615
825.4726	 0.0614
827.4013	 0.0612
829.3300	 0.0609
831.2586	 0.0606
833.1873	 0.0603
835.1160	 0.0598
837.0447	 0.0592
838.9733	 0.0587
840.9020	 0.0581
842.8307	 0.0575
844.7594	 0.0570
846.6880	 0.0564
848.6167	 0.0559
850.5454	 0.0555
852.4740	 0.0551
854.4027	 0.0547
856.3314	 0.0544
858.2601	 0.0543
860.1887	 0.0542
862.1174	 0.0543
864.0461	 0.0544
865.9748	 0.0548
867.9034	 0.0552
869.8321	 0.0556
871.7608	 0.0560
873.6895	 0.0561
875.6181	 0.0561
877.5468	 0.0561
879.4755	 0.0562
881.4042	 0.0563
883.3328	 0.0567
885.2615	 0.0572
887.1902	 0.0579
889.1189	 0.0589
891.0475	 0.0601
892.9762	 0.0613
894.9049	 0.0623
896.8336	 0.0628
898.7622	 0.0626
900.6909	 0.0617
902.6196	 0.0603
904.5483	 0.0587
906.4769	 0.0572
908.4056	 0.0559
910.3343	 0.0551
912.2630	 0.0545
914.1916	 0.0541
916.1203	 0.0539
918.0490	 0.0538
919.9776	 0.0537
921.9063	 0.0537
923.8350	 0.0538
925.7637	 0.0539
927.6923	 0.0540
929.6210	 0.0541
931.5497	 0.0541
933.4784	 0.0541
935.4070	 0.0542
937.3357	 0.0542
939.2644	 0.0544
941.1931	 0.0548
943.1217	 0.0554
945.0504	 0.0563
946.9791	 0.0575
948.9078	 0.0589
950.8364	 0.0608
952.7651	 0.0628
954.6938	 0.0650
956.6225	 0.0674
958.5511	 0.0699
960.4798	 0.0725
962.4085	 0.0751
964.3372	 0.0778
966.2658	 0.0803
968.1945	 0.0829
970.1232	 0.0855
972.0519	 0.0883
973.9805	 0.0914
975.9092	 0.0948
977.8379	 0.0987
979.7666	 0.1030
981.6952	 0.1076
983.6239	 0.1122
985.5526	 0.1162
987.4812	 0.1196
989.4099	 0.1226
991.3386	 0.1251
993.2673	 0.1271
995.1959	 0.1287
997.1246	 0.1302
999.0533	 0.1317
1000.9820	 0.1334
1002.9106	 0.1354
1004.8393	 0.1378
1006.7680	 0.1408
1008.6967	 0.1447
1010.6253	 0.1492
1012.5540	 0.1543
1014.4827	 0.1597
1016.4114	 0.1649
1018.3400	 0.1698
1020.2687	 0.1744
1022.1974	 0.1784
1024.1261	 0.1820
1026.0547	 0.1856
1027.9834	 0.1890
1029.9121	 0.1921
1031.8408	 0.1947
1033.7694	 0.1960
1035.6981	 0.1958
1037.6268	 0.1944
1039.5555	 0.1928
1041.4841	 0.1915
1043.4128	 0.1906
1045.3415	 0.1897
1047.2702	 0.1885
1049.1988	 0.1866
1051.1275	 0.1838
1053.0562	 0.1802
1054.9849	 0.1760
1056.9135	 0.1714
1058.8422	 0.1665
1060.7709	 0.1611
1062.6995	 0.1552
1064.6282	 0.1495
1066.5569	 0.1447
1068.4856	 0.1409
1070.4142	 0.1379
1072.3429	 0.1353
1074.2716	 0.1329
1076.2003	 0.1303
1078.1289	 0.1275
1080.0576	 0.1247
1081.9863	 0.1223
1083.9150	 0.1201
1085.8436	 0.1183
1087.7723	 0.1168
1089.7010	 0.1154
1091.6297	 0.1141
1093.5583	 0.1129
1095.4870	 0.1120
1097.4157	 0.1113
1099.3444	 0.1107
1101.2730	 0.1104
1103.2017	 0.1104
1105.1304	 0.1104
1107.0591	 0.1102
1108.9877	 0.1099
1110.9164	 0.1095
1112.8451	 0.1087
1114.7738	 0.1074
1116.7024	 0.1058
1118.6311	 0.1043
1120.5598	 0.1030
1122.4885	 0.1015
1124.4171	 0.0992
1126.3458	 0.0959
1128.2745	 0.0919
1130.2031	 0.0874
1132.1318	 0.0826
1134.0605	 0.0778
1135.9892	 0.0735
1137.9178	 0.0702
1139.8465	 0.0681
1141.7752	 0.0671
1143.7039	 0.0670
1145.6325	 0.0673
1147.5612	 0.0681
1149.4899	 0.0689
1151.4186	 0.0699
1153.3472	 0.0708
1155.2759	 0.0713
1157.2046	 0.0714
1159.1333	 0.0708
1161.0619	 0.0693
1162.9906	 0.0667
1164.9193	 0.0633
1166.8480	 0.0594
1168.7766	 0.0556
1170.7053	 0.0522
1172.6340	 0.0492
1174.5627	 0.0468
1176.4913	 0.0450
1178.4200	 0.0436
1180.3487	 0.0425
1182.2774	 0.0418
1184.2060	 0.0413
1186.1347	 0.0409
1188.0634	 0.0408
1189.9921	 0.0409
1191.9207	 0.0412
1193.8494	 0.0418
1195.7781	 0.0426
1197.7068	 0.0437
1199.6354	 0.0450
1201.5641	 0.0465
1203.4928	 0.0481
1205.4214	 0.0499
1207.3501	 0.0517
1209.2788	 0.0537
1211.2075	 0.0558
1213.1361	 0.0581
1215.0648	 0.0606
1216.9935	 0.0629
1218.9222	 0.0651
1220.8508	 0.0671
1222.7795	 0.0688
1224.7082	 0.0704
1226.6369	 0.0718
1228.5655	 0.0731
1230.4942	 0.0742
1232.4229	 0.0751
1234.3516	 0.0759
1236.2802	 0.0764
1238.2089	 0.0766
1240.1376	 0.0764
1242.0663	 0.0760
1243.9949	 0.0753
1245.9236	 0.0743
1247.8523	 0.0732
1249.7810	 0.0719
1251.7096	 0.0705
1253.6383	 0.0690
1255.5670	 0.0675
1257.4957	 0.0659
1259.4243	 0.0642
1261.3530	 0.0625
1263.2817	 0.0608
1265.2104	 0.0591
1267.1390	 0.0573
1269.0677	 0.0555
1270.9964	 0.0536
1272.9250	 0.0518
1274.8537	 0.0500
1276.7824	 0.0483
1278.7111	 0.0467
1280.6397	 0.0453
1282.5684	 0.0440
1284.4971	 0.0427
1286.4258	 0.0415
1288.3544	 0.0406
1290.2831	 0.0400
1292.2118	 0.0395
1294.1405	 0.0392
1296.0691	 0.0391
1297.9978	 0.0393
1299.9265	 0.0397
1301.8552	 0.0403
1303.7838	 0.0410
1305.7125	 0.0418
1307.6412	 0.0428
1309.5699	 0.0440
1311.4985	 0.0453
1313.4272	 0.0467
1315.3559	 0.0481
1317.2846	 0.0491
1319.2132	 0.0495
1321.1419	 0.0497
1323.0706	 0.0496
1324.9993	 0.0495
1326.9279	 0.0494
1328.8566	 0.0492
1330.7853	 0.0487
1332.7140	 0.0480
1334.6426	 0.0471
1336.5713	 0.0458
1338.5000	 0.0444
1340.4286	 0.0434
1342.3573	 0.0430
1344.2860	 0.0425
1346.2147	 0.0421
1348.1433	 0.0418
1350.0720	 0.0418
1352.0007	 0.0421
1353.9294	 0.0425
1355.8580	 0.0430
1357.7867	 0.0439
1359.7154	 0.0447
1361.6441	 0.0454
1363.5727	 0.0465
1365.5014	 0.0477
1367.4301	 0.0485
1369.3588	 0.0491
1371.2874	 0.0494
1373.2161	 0.0492
1375.1448	 0.0488
1377.0735	 0.0485
1379.0021	 0.0475
1380.9308	 0.0459
1382.8595	 0.0441
1384.7882	 0.0421
1386.7168	 0.0400
1388.6455	 0.0385
1390.5742	 0.0377
1392.5029	 0.0367
1394.4315	 0.0356
1396.3602	 0.0351
1398.2889	 0.0350
1400.2176	 0.0352
1402.1462	 0.0357
1404.0749	 0.0358
1406.0036	 0.0363
1407.9323	 0.0373
1409.8609	 0.0382
1411.7896	 0.0392
1413.7183	 0.0406
1415.6469	 0.0417
1417.5756	 0.0422
1419.5043	 0.0433
1421.4330	 0.0446
1423.3616	 0.0448
1425.2903	 0.0446
1427.2190	 0.0440
1429.1477	 0.0426
1431.0763	 0.0411
1433.0050	 0.0399
1434.9337	 0.0384
1436.8624	 0.0368
1438.7910	 0.0367
1440.7197	 0.0370
1442.6484	 0.0373
1444.5771	 0.0378
1446.5057	 0.0382
1448.4344	 0.0391
1450.3631	 0.0402
1452.2918	 0.0410
1454.2204	 0.0412
1456.1491	 0.0405
1458.0778	 0.0405
1460.0065	 0.0419
1461.9351	 0.0425
1463.8638	 0.0417
1465.7925	 0.0403
1467.7212	 0.0387
1469.6498	 0.0363
1471.5785	 0.0324
1473.5072	 0.0287
1475.4359	 0.0269
1477.3645	 0.0257
1479.2932	 0.0247
1481.2219	 0.0238
1483.1505	 0.0233
1485.0792	 0.0230
1487.0079	 0.0224
1488.9366	 0.0222
1490.8652	 0.0234
1492.7939	 0.0251
1494.7226	 0.0261
1496.6513	 0.0270
1498.5799	 0.0288
1500.5086	 0.0307
1502.4373	 0.0319
1504.3660	 0.0316
1506.2946	 0.0294
1508.2233	 0.0284
1510.1520	 0.0288
1512.0807	 0.0282
1514.0093	 0.0269
1515.9380	 0.0250
1517.8667	 0.0233
1519.7954	 0.0221
1521.7240	 0.0204
1523.6527	 0.0199
1525.5814	 0.0197
1527.5101	 0.0194
1529.4387	 0.0194
1531.3674	 0.0189
1533.2961	 0.0181
1535.2248	 0.0183
1537.1534	 0.0182
1539.0821	 0.0165
1541.0108	 0.0159
1542.9395	 0.0167
1544.8681	 0.0176
1546.7968	 0.0185
1548.7255	 0.0187
1550.6542	 0.0186
1552.5828	 0.0187
1554.5115	 0.0185
1556.4402	 0.0179
1558.3688	 0.0163
1560.2975	 0.0178
1562.2262	 0.0197
1564.1549	 0.0203
1566.0835	 0.0207
1568.0122	 0.0209
1569.9409	 0.0213
1571.8696	 0.0226
1573.7982	 0.0233
1575.7269	 0.0236
1577.6556	 0.0254
1579.5843	 0.0274
1581.5129	 0.0291
1583.4416	 0.0309
1585.3703	 0.0329
1587.2990	 0.0351
1589.2276	 0.0371
1591.1563	 0.0388
1593.0850	 0.0399
1595.0137	 0.0402
1596.9423	 0.0400
1598.8710	 0.0395
1600.7997	 0.0389
1602.7284	 0.0385
1604.6570	 0.0383
1606.5857	 0.0381
1608.5144	 0.0380
1610.4431	 0.0383
1612.3717	 0.0387
1614.3004	 0.0389
1616.2291	 0.0387
1618.1578	 0.0396
1620.0864	 0.0407
1622.0151	 0.0407
1623.9438	 0.0409
1625.8724	 0.0414
1627.8011	 0.0416
1629.7298	 0.0420
1631.6585	 0.0423
1633.5871	 0.0417
1635.5158	 0.0404
1637.4445	 0.0408
1639.3732	 0.0417
1641.3018	 0.0419
1643.2305	 0.0416
1645.1592	 0.0405
1647.0879	 0.0393
1649.0165	 0.0397
1650.9452	 0.0395
1652.8739	 0.0372
1654.8026	 0.0371
1656.7312	 0.0379
1658.6599	 0.0376
1660.5886	 0.0365
1662.5173	 0.0350
1664.4459	 0.0342
1666.3746	 0.0334
1668.3033	 0.0317
1670.2320	 0.0300
1672.1606	 0.0294
1674.0893	 0.0285
1676.0180	 0.0274
1677.9467	 0.0269
1679.8753	 0.0260
1681.8040	 0.0247
1683.7327	 0.0228
1685.6614	 0.0225
1687.5900	 0.0230
1689.5187	 0.0227
1691.4474	 0.0225
1693.3760	 0.0221
1695.3047	 0.0210
1697.2334	 0.0204
1699.1621	 0.0202
1701.0907	 0.0206
1703.0194	 0.0218
1704.9481	 0.0222
1706.8768	 0.0231
1708.8054	 0.0245
1710.7341	 0.0256
1712.6628	 0.0264
1714.5915	 0.0268
1716.5201	 0.0274
1718.4488	 0.0293
1720.3775	 0.0316
1722.3062	 0.0331
1724.2348	 0.0343
1726.1635	 0.0355
1728.0922	 0.0360
1730.0209	 0.0362
1731.9495	 0.0360
1733.8782	 0.0353
1735.8069	 0.0354
1737.7356	 0.0352
1739.6642	 0.0339
1741.5929	 0.0325
1743.5216	 0.0310
1745.4503	 0.0292
1747.3789	 0.0272
1749.3076	 0.0251
1751.2363	 0.0234
1753.1650	 0.0223
1755.0936	 0.0210
1757.0223	 0.0192
1758.9510	 0.0178
1760.8797	 0.0164
1762.8083	 0.0150
1764.7370	 0.0143
1766.6657	 0.0132
1768.5943	 0.0120
1770.5230	 0.0109
1772.4517	 0.0100
1774.3804	 0.0100
1776.3090	 0.0102
1778.2377	 0.0099
1780.1664	 0.0095
1782.0951	 0.0094
1784.0237	 0.0093
1785.9524	 0.0092
1787.8811	 0.0092
1789.8098	 0.0087
1791.7384	 0.0080
1793.6671	 0.0081
1795.5958	 0.0085
1797.5245	 0.0084
1799.4531	 0.0082
1801.3818	 0.0081
1803.3105	 0.0083
1805.2392	 0.0085
1807.1678	 0.0084
1809.0965	 0.0082
1811.0252	 0.0081
1812.9539	 0.0082
1814.8825	 0.0083
1816.8112	 0.0082
1818.7399	 0.0082
1820.6686	 0.0082
1822.5972	 0.0080
1824.5259	 0.0077
1826.4546	 0.0076
1828.3833	 0.0074
1830.3119	 0.0073
1832.2406	 0.0078
1834.1693	 0.0080
1836.0979	 0.0079
1838.0266	 0.0079
1839.9553	 0.0079
1841.8840	 0.0076
1843.8126	 0.0071
1845.7413	 0.0073
1847.6700	 0.0076
1849.5987	 0.0078
1851.5273	 0.0079
1853.4560	 0.0079
1855.3847	 0.0079
1857.3134	 0.0079
1859.2420	 0.0079
1861.1707	 0.0079
1863.0994	 0.0079
1865.0281	 0.0077
1866.9567	 0.0073
1868.8854	 0.0070
1870.8141	 0.0075
1872.7428	 0.0078
1874.6714	 0.0079
1876.6001	 0.0079
1878.5288	 0.0079
1880.4575	 0.0079
1882.3861	 0.0079
1884.3148	 0.0079
1886.2435	 0.0079
1888.1722	 0.0077
1890.1008	 0.0076
1892.0295	 0.0078
1893.9582	 0.0078
1895.8869	 0.0078
1897.8155	 0.0079
1899.7442	 0.0079
1901.6729	 0.0080
1903.6016	 0.0080
1905.5302	 0.0080
1907.4589	 0.0079
1909.3876	 0.0078
1911.3162	 0.0079
1913.2449	 0.0080
1915.1736	 0.0080
1917.1023	 0.0077
1919.0309	 0.0078
1920.9596	 0.0078
1922.8883	 0.0077
1924.8170	 0.0079
1926.7456	 0.0081
1928.6743	 0.0081
1930.6030	 0.0081
1932.5317	 0.0081
1934.4603	 0.0082
1936.3890	 0.0082
1938.3177	 0.0082
1940.2464	 0.0081
1942.1750	 0.0079
1944.1037	 0.0080
1946.0324	 0.0081
1947.9611	 0.0082
1949.8897	 0.0083
1951.8184	 0.0083
1953.7471	 0.0083
1955.6758	 0.0083
1957.6044	 0.0083
1959.5331	 0.0083
1961.4618	 0.0083
1963.3905	 0.0083
1965.3191	 0.0082
1967.2478	 0.0081
1969.1765	 0.0083
1971.1052	 0.0084
1973.0338	 0.0084
1974.9625	 0.0084
1976.8912	 0.0084
1978.8198	 0.0084
1980.7485	 0.0084
1982.6772	 0.0084
1984.6059	 0.0084
1986.5345	 0.0084
1988.4632	 0.0084
1990.3919	 0.0083
1992.3206	 0.0083
1994.2492	 0.0084
1996.1779	 0.0085
1998.1066	 0.0085
2000.0353	 0.0086
2001.9639	 0.0086
2003.8926	 0.0086
2005.8213	 0.0086
2007.7500	 0.0086
2009.6786	 0.0086
2011.6073	 0.0087
2013.5360	 0.0087
2015.4647	 0.0087
2017.3933	 0.0086
2019.3220	 0.0087
2021.2507	 0.0088
2023.1794	 0.0088
2025.1080	 0.0088
2027.0367	 0.0089
2028.9654	 0.0089
2030.8941	 0.0089
2032.8227	 0.0089
2034.7514	 0.0089
2036.6801	 0.0090
2038.6088	 0.0090
2040.5374	 0.0089
2042.4661	 0.0089
2044.3948	 0.0090
2046.3234	 0.0090
2048.2521	 0.0090
2050.1808	 0.0091
2052.1095	 0.0091
2054.0381	 0.0091
2055.9668	 0.0091
2057.8955	 0.0091
2059.8242	 0.0091
2061.7528	 0.0091
2063.6815	 0.0091
2065.6102	 0.0091
2067.5389	 0.0091
2069.4675	 0.0091
2071.3962	 0.0091
2073.3249	 0.0091
2075.2536	 0.0091
2077.1822	 0.0091
2079.1109	 0.0091
2081.0396	 0.0092
2082.9683	 0.0092
2084.8969	 0.0091
2086.8256	 0.0091
2088.7543	 0.0091
2090.6830	 0.0092
2092.6116	 0.0092
2094.5403	 0.0092
2096.4690	 0.0092
2098.3977	 0.0092
2100.3263	 0.0092
2102.2550	 0.0092
2104.1837	 0.0092
2106.1124	 0.0092
2108.0410	 0.0092
2109.9697	 0.0092
2111.8984	 0.0092
2113.8271	 0.0092
2115.7557	 0.0092
2117.6844	 0.0092
2119.6131	 0.0093
2121.5417	 0.0092
2123.4704	 0.0092
2125.3991	 0.0092
2127.3278	 0.0092
2129.2564	 0.0092
2131.1851	 0.0092
2133.1138	 0.0092
2135.0425	 0.0092
2136.9711	 0.0092
2138.8998	 0.0092
2140.8285	 0.0092
2142.7572	 0.0092
2144.6858	 0.0091
2146.6145	 0.0091
2148.5432	 0.0091
2150.4719	 0.0091
2152.4005	 0.0091
2154.3292	 0.0091
2156.2579	 0.0091
2158.1866	 0.0091
2160.1152	 0.0090
2162.0439	 0.0090
2163.9726	 0.0090
2165.9013	 0.0090
2167.8299	 0.0089
2169.7586	 0.0089
2171.6873	 0.0089
2173.6160	 0.0089
2175.5446	 0.0089
2177.4733	 0.0088
2179.4020	 0.0088
2181.3307	 0.0088
2183.2593	 0.0088
2185.1880	 0.0087
2187.1167	 0.0087
2189.0453	 0.0087
2190.9740	 0.0087
2192.9027	 0.0087
2194.8314	 0.0086
2196.7600	 0.0086
2198.6887	 0.0086
2200.6174	 0.0086
2202.5461	 0.0085
2204.4747	 0.0085
2206.4034	 0.0085
2208.3321	 0.0085
2210.2608	 0.0085
2212.1894	 0.0085
2214.1181	 0.0085
2216.0468	 0.0085
2217.9755	 0.0085
2219.9041	 0.0084
2221.8328	 0.0084
2223.7615	 0.0084
2225.6902	 0.0084
2227.6188	 0.0084
2229.5475	 0.0084
2231.4762	 0.0084
2233.4049	 0.0084
2235.3335	 0.0084
2237.2622	 0.0084
2239.1909	 0.0084
2241.1196	 0.0084
2243.0482	 0.0083
2244.9769	 0.0083
2246.9056	 0.0083
2248.8343	 0.0083
2250.7629	 0.0083
2252.6916	 0.0083
2254.6203	 0.0083
2256.5490	 0.0084
2258.4776	 0.0084
2260.4063	 0.0084
2262.3350	 0.0083
2264.2636	 0.0083
2266.1923	 0.0083
2268.1210	 0.0083
2270.0497	 0.0083
2271.9783	 0.0083
2273.9070	 0.0083
2275.8357	 0.0083
2277.7644	 0.0083
2279.6930	 0.0083
2281.6217	 0.0082
2283.5504	 0.0082
2285.4791	 0.0083
2287.4077	 0.0083
2289.3364	 0.0084
2291.2651	 0.0085
2293.1938	 0.0086
2295.1224	 0.0087
2297.0511	 0.0088
2298.9798	 0.0090
2300.9085	 0.0091
2302.8371	 0.0093
2304.7658	 0.0095
2306.6945	 0.0098
2308.6232	 0.0101
2310.5518	 0.0104
2312.4805	 0.0106
2314.4092	 0.0108
2316.3379	 0.0110
2318.2665	 0.0114
2320.1952	 0.0119
2322.1239	 0.0124
2324.0526	 0.0126
2325.9812	 0.0127
2327.9099	 0.0131
2329.8386	 0.0134
2331.7672	 0.0135
2333.6959	 0.0135
2335.6246	 0.0135
2337.5533	 0.0137
2339.4819	 0.0139
2341.4106	 0.0140
2343.3393	 0.0140
2345.2680	 0.0135
2347.1966	 0.0124
2349.1253	 0.0120
2351.0540	 0.0129
2352.9827	 0.0141
2354.9113	 0.0150
2356.8400	 0.0158
2358.7687	 0.0162
2360.6974	 0.0162
2362.6260	 0.0161
2364.5547	 0.0157
2366.4834	 0.0150
2368.4121	 0.0142
2370.3407	 0.0133
2372.2694	 0.0125
2374.1981	 0.0117
2376.1268	 0.0110
2378.0554	 0.0102
2379.9841	 0.0095
2381.9128	 0.0089
2383.8415	 0.0084
2385.7701	 0.0081
2387.6988	 0.0080
2389.6275	 0.0079
2391.5562	 0.0079
2393.4848	 0.0079
2395.4135	 0.0079
2397.3422	 0.0079
2399.2708	 0.0079
2401.1995	 0.0079
2403.1282	 0.0079
2405.0569	 0.0079
2406.9855	 0.0080
2408.9142	 0.0080
2410.8429	 0.0080
2412.7716	 0.0080
2414.7002	 0.0080
2416.6289	 0.0080
2418.5576	 0.0080
2420.4863	 0.0080
2422.4149	 0.0080
2424.3436	 0.0081
2426.2723	 0.0080
2428.2010	 0.0080
2430.1296	 0.0080
2432.0583	 0.0080
2433.9870	 0.0080
2435.9157	 0.0081
2437.8443	 0.0081
2439.7730	 0.0081
2441.7017	 0.0081
2443.6304	 0.0081
2445.5590	 0.0081
2447.4877	 0.0081
2449.4164	 0.0081
2451.3451	 0.0081
2453.2737	 0.0081
2455.2024	 0.0082
2457.1311	 0.0082
2459.0598	 0.0082
2460.9884	 0.0082
2462.9171	 0.0082
2464.8458	 0.0082
2466.7745	 0.0082
2468.7031	 0.0082
2470.6318	 0.0082
2472.5605	 0.0082
2474.4891	 0.0082
2476.4178	 0.0082
2478.3465	 0.0082
2480.2752	 0.0082
2482.2038	 0.0082
2484.1325	 0.0083
2486.0612	 0.0083
2487.9899	 0.0083
2489.9185	 0.0083
2491.8472	 0.0083
2493.7759	 0.0083
2495.7046	 0.0083
2497.6332	 0.0083
2499.5619	 0.0083
2501.4906	 0.0083
2503.4193	 0.0083
2505.3479	 0.0083
2507.2766	 0.0084
2509.2053	 0.0084
2511.1340	 0.0084
2513.0626	 0.0084
2514.9913	 0.0084
2516.9200	 0.0084
2518.8487	 0.0084
2520.7773	 0.0085
2522.7060	 0.0085
2524.6347	 0.0085
2526.5634	 0.0085
2528.4920	 0.0085
2530.4207	 0.0085
2532.3494	 0.0085
2534.2781	 0.0085
2536.2067	 0.0085
2538.1354	 0.0085
2540.0641	 0.0085
2541.9927	 0.0086
2543.9214	 0.0086
2545.8501	 0.0086
2547.7788	 0.0086
2549.7074	 0.0086
2551.6361	 0.0086
2553.5648	 0.0086
2555.4935	 0.0086
2557.4221	 0.0086
2559.3508	 0.0086
2561.2795	 0.0087
2563.2082	 0.0087
2565.1368	 0.0087
2567.0655	 0.0087
2568.9942	 0.0087
2570.9229	 0.0087
2572.8515	 0.0088
2574.7802	 0.0087
2576.7089	 0.0087
2578.6376	 0.0088
2580.5662	 0.0088
2582.4949	 0.0088
2584.4236	 0.0088
2586.3523	 0.0088
2588.2809	 0.0088
2590.2096	 0.0089
2592.1383	 0.0089
2594.0670	 0.0089
2595.9956	 0.0089
2597.9243	 0.0089
2599.8530	 0.0089
2601.7817	 0.0089
2603.7103	 0.0090
2605.6390	 0.0090
2607.5677	 0.0090
2609.4964	 0.0090
2611.4250	 0.0090
2613.3537	 0.0090
2615.2824	 0.0090
2617.2110	 0.0091
2619.1397	 0.0091
2621.0684	 0.0091
2622.9971	 0.0091
2624.9257	 0.0092
2626.8544	 0.0092
2628.7831	 0.0092
2630.7118	 0.0092
2632.6404	 0.0092
2634.5691	 0.0093
2636.4978	 0.0093
2638.4265	 0.0093
2640.3551	 0.0094
2642.2838	 0.0094
2644.2125	 0.0094
2646.1412	 0.0094
2648.0698	 0.0095
2649.9985	 0.0095
2651.9272	 0.0095
2653.8559	 0.0095
2655.7845	 0.0096
2657.7132	 0.0096
2659.6419	 0.0096
2661.5706	 0.0096
2663.4992	 0.0096
2665.4279	 0.0096
2667.3566	 0.0097
2669.2853	 0.0097
2671.2139	 0.0097
2673.1426	 0.0098
2675.0713	 0.0098
2677.0000	 0.0098
2678.9286	 0.0098
2680.8573	 0.0099
2682.7860	 0.0099
2684.7146	 0.0099
2686.6433	 0.0099
2688.5720	 0.0100
2690.5007	 0.0101
2692.4293	 0.0101
2694.3580	 0.0101
2696.2867	 0.0101
2698.2154	 0.0101
2700.1440	 0.0102
2702.0727	 0.0103
2704.0014	 0.0103
2705.9301	 0.0103
2707.8587	 0.0103
2709.7874	 0.0104
2711.7161	 0.0104
2713.6448	 0.0105
2715.5734	 0.0105
2717.5021	 0.0105
2719.4308	 0.0106
2721.3595	 0.0106
2723.2881	 0.0106
2725.2168	 0.0107
2727.1455	 0.0107
2729.0742	 0.0107
2731.0028	 0.0107
2732.9315	 0.0107
2734.8602	 0.0108
2736.7889	 0.0108
2738.7175	 0.0108
2740.6462	 0.0109
2742.5749	 0.0109
2744.5036	 0.0109
2746.4322	 0.0109
2748.3609	 0.0109
2750.2896	 0.0110
2752.2182	 0.0110
2754.1469	 0.0110
