DATATYPE	 IR Spectrum
XYUNITS	 Wavenumber;Absorbance
DECIMALSYMBOL	 .
599.8177	 0.2010
601.7464	 0.1998
603.6751	 0.1989
605.6037	 0.1981
607.5324	 0.1974
609.4611	 0.1968
611.3898	 0.1956
613.3184	 0.1942
615.2471	 0.1930
617.1758	 0.1911
619.1045	 0.1900
621.0331	 0.1898
622.9618	 0.1880
624.8905	 0.1858
626.8192	 0.1843
628.7478	 0.1830
630.6765	 0.1818
632.6052	 0.1805
634.5339	 0.1790
636.4625	 0.1772
638.3912	 0.1758
640.3199	 0.1748
642.2485	 0.1739
644.1772	 0.1730
646.1059	 0.1722
648.0346	 0.1714
649.9632	 0.1701
651.8919	 0.1691
653.8206	 0.1687
655.7493	 0.1682
657.6779	 0.1676
659.6066	 0.1673
661.5353	 0.1667
663.4640	 0.1656
665.3926	 0.1646
667.3213	 0.1638
669.2500	 0.1614
671.1787	 0.1592
673.1073	 0.1570
675.0360	 0.1546
676.9647	 0.1522
678.8934	 0.1498
680.8220	 0.1479
682.7507	 0.1464
684.6794	 0.1452
686.6081	 0.1442
688.5367	 0.1432
690.4654	 0.1421
692.3941	 0.1412
694.3228	 0.1405
696.2514	 0.1397
698.1801	 0.1389
700.1088	 0.1381
702.0375	 0.1372
703.9661	 0.1361
705.8948	 0.1350
707.8235	 0.1339
709.7521	 0.1329
711.6808	 0.1318
713.6095	 0.1307
715.5382	 0.1295
717.4668	 0.1282
719.3955	 0.1269
721.3242	 0.1256
723.2529	 0.1244
725.1815	 0.1233
727.1102	 0.1221
729.0389	 0.1209
730.9676	 0.1197
732.8962	 0.1187
734.8249	 0.1177
736.7536	 0.1168
738.6823	 0.1159
740.6109	 0.1151
742.5396	 0.1143
744.4683	 0.1134
746.3970	 0.1124
748.3256	 0.1114
750.2543	 0.1105
752.1830	 0.1097
754.1117	 0.1090
756.0403	 0.1083
757.9690	 0.1074
759.8977	 0.1066
761.8264	 0.1059
763.7550	 0.1052
765.6837	 0.1045
767.6124	 0.1037
769.5411	 0.1029
771.4697	 0.1020
773.3984	 0.1012
775.3271	 0.1002
777.2557	 0.0994
779.1844	 0.0985
781.1131	 0.0976
783.0418	 0.0965
784.9704	 0.0953
786.8991	 0.0943
788.8278	 0.0934
790.7565	 0.0926
792.6851	 0.0920
794.6138	 0.0915
796.5425	 0.0913
798.4712	 0.0912
800.3998	 0.0911
802.3285	 0.0910
804.2572	 0.0909
806.1859	 0.0907
808.1145	 0.0903
810.0432	 0.0897
811.9719	 0.0890
813.9006	 0.0878
815.8292	 0.0865
817.7579	 0.0852
819.6866	 0.0839
821.6153	 0.0825
823.5439	 0.0812
825.4726	 0.0801
827.4013	 0.0792
829.3300	 0.0784
831.2586	 0.0776
833.1873	 0.0767
835.1160	 0.0758
837.0447	 0.0749
838.9733	 0.0740
840.9020	 0.0731
842.8307	 0.0723
844.7594	 0.0718
846.6880	 0.0716
848.6167	 0.0715
850.5454	 0.0715
852.4740	 0.0717
854.4027	 0.0718
856.3314	 0.0717
858.2601	 0.0717
860.1887	 0.0716
862.1174	 0.0715
864.0461	 0.0712
865.9748	 0.0710
867.9034	 0.0706
869.8321	 0.0703
871.7608	 0.0701
873.6895	 0.0698
875.6181	 0.0696
877.5468	 0.0695
879.4755	 0.0695
881.4042	 0.0697
883.3328	 0.0699
885.2615	 0.0702
887.1902	 0.0707
889.1189	 0.0713
891.0475	 0.0720
892.9762	 0.0725
894.9049	 0.0728
896.8336	 0.0727
898.7622	 0.0720
900.6909	 0.0708
902.6196	 0.0693
904.5483	 0.0677
906.4769	 0.0662
908.4056	 0.0647
910.3343	 0.0634
912.2630	 0.0625
914.1916	 0.0619
916.1203	 0.0615
918.0490	 0.0613
919.9776	 0.0613
921.9063	 0.0613
923.8350	 0.0615
925.7637	 0.0618
927.6923	 0.0621
929.6210	 0.0626
931.5497	 0.0631
933.4784	 0.0638
935.4070	 0.0645
937.3357	 0.0653
939.2644	 0.0662
941.1931	 0.0673
943.1217	 0.0685
945.0504	 0.0698
946.9791	 0.0711
948.9078	 0.0725
950.8364	 0.0741
952.7651	 0.0759
954.6938	 0.0778
956.6225	 0.0800
958.5511	 0.0822
960.4798	 0.0844
962.4085	 0.0867
964.3372	 0.0888
966.2658	 0.0910
968.1945	 0.0930
970.1232	 0.0950
972.0519	 0.0973
973.9805	 0.1000
975.9092	 0.1033
977.8379	 0.1073
979.7666	 0.1121
981.6952	 0.1177
983.6239	 0.1238
985.5526	 0.1297
987.4812	 0.1353
989.4099	 0.1407
991.3386	 0.1460
993.2673	 0.1509
995.1959	 0.1554
997.1246	 0.1594
999.0533	 0.1632
1000.9820	 0.1671
1002.9106	 0.1711
1004.8393	 0.1756
1006.7680	 0.1807
1008.6967	 0.1865
1010.6253	 0.1930
1012.5540	 0.2002
1014.4827	 0.2075
1016.4114	 0.2146
1018.3400	 0.2212
1020.2687	 0.2270
1022.1974	 0.2318
1024.1261	 0.2354
1026.0547	 0.2376
1027.9834	 0.2386
1029.9121	 0.2384
1031.8408	 0.2366
1033.7694	 0.2332
1035.6981	 0.2283
1037.6268	 0.2229
1039.5555	 0.2180
1041.4841	 0.2148
1043.4128	 0.2132
1045.3415	 0.2128
1047.2702	 0.2128
1049.1988	 0.2128
1051.1275	 0.2123
1053.0562	 0.2111
1054.9849	 0.2090
1056.9135	 0.2061
1058.8422	 0.2021
1060.7709	 0.1966
1062.6995	 0.1899
1064.6282	 0.1833
1066.5569	 0.1773
1068.4856	 0.1721
1070.4142	 0.1673
1072.3429	 0.1626
1074.2716	 0.1580
1076.2003	 0.1534
1078.1289	 0.1489
1080.0576	 0.1448
1081.9863	 0.1416
1083.9150	 0.1392
1085.8436	 0.1373
1087.7723	 0.1357
1089.7010	 0.1342
1091.6297	 0.1325
1093.5583	 0.1307
1095.4870	 0.1289
1097.4157	 0.1271
1099.3444	 0.1255
1101.2730	 0.1241
1103.2017	 0.1229
1105.1304	 0.1216
1107.0591	 0.1203
1108.9877	 0.1188
1110.9164	 0.1171
1112.8451	 0.1147
1114.7738	 0.1115
1116.7024	 0.1081
1118.6311	 0.1051
1120.5598	 0.1026
1122.4885	 0.1005
1124.4171	 0.0985
1126.3458	 0.0962
1128.2745	 0.0941
1130.2031	 0.0924
1132.1318	 0.0911
1134.0605	 0.0904
1135.9892	 0.0900
1137.9178	 0.0899
1139.8465	 0.0900
1141.7752	 0.0901
1143.7039	 0.0899
1145.6325	 0.0894
1147.5612	 0.0888
1149.4899	 0.0884
1151.4186	 0.0884
1153.3472	 0.0887
1155.2759	 0.0888
1157.2046	 0.0883
1159.1333	 0.0871
1161.0619	 0.0846
1162.9906	 0.0807
1164.9193	 0.0756
1166.8480	 0.0700
1168.7766	 0.0644
1170.7053	 0.0596
1172.6340	 0.0557
1174.5627	 0.0525
1176.4913	 0.0501
1178.4200	 0.0481
1180.3487	 0.0466
1182.2774	 0.0456
1184.2060	 0.0450
1186.1347	 0.0449
1188.0634	 0.0452
1189.9921	 0.0459
1191.9207	 0.0467
1193.8494	 0.0477
1195.7781	 0.0491
1197.7068	 0.0506
1199.6354	 0.0524
1201.5641	 0.0543
1203.4928	 0.0562
1205.4214	 0.0581
1207.3501	 0.0598
1209.2788	 0.0613
1211.2075	 0.0626
1213.1361	 0.0638
1215.0648	 0.0648
1216.9935	 0.0657
1218.9222	 0.0665
1220.8508	 0.0673
1222.7795	 0.0680
1224.7082	 0.0686
1226.6369	 0.0689
1228.5655	 0.0691
1230.4942	 0.0690
1232.4229	 0.0687
1234.3516	 0.0684
1236.2802	 0.0680
1238.2089	 0.0677
1240.1376	 0.0677
1242.0663	 0.0680
1243.9949	 0.0685
1245.9236	 0.0692
1247.8523	 0.0701
1249.7810	 0.0711
1251.7096	 0.0722
1253.6383	 0.0735
1255.5670	 0.0748
1257.4957	 0.0761
1259.4243	 0.0773
1261.3530	 0.0782
1263.2817	 0.0786
1265.2104	 0.0785
1267.1390	 0.0778
1269.0677	 0.0765
1270.9964	 0.0746
1272.9250	 0.0723
1274.8537	 0.0696
1276.7824	 0.0669
1278.7111	 0.0642
1280.6397	 0.0617
1282.5684	 0.0593
1284.4971	 0.0571
1286.4258	 0.0551
1288.3544	 0.0536
1290.2831	 0.0524
1292.2118	 0.0516
1294.1405	 0.0510
1296.0691	 0.0506
1297.9978	 0.0506
1299.9265	 0.0507
1301.8552	 0.0509
1303.7838	 0.0513
1305.7125	 0.0518
1307.6412	 0.0524
1309.5699	 0.0532
1311.4985	 0.0540
1313.4272	 0.0547
1315.3559	 0.0553
1317.2846	 0.0556
1319.2132	 0.0553
1321.1419	 0.0548
1323.0706	 0.0542
1324.9993	 0.0536
1326.9279	 0.0533
1328.8566	 0.0531
1330.7853	 0.0531
1332.7140	 0.0531
1334.6426	 0.0529
1336.5713	 0.0524
1338.5000	 0.0519
1340.4286	 0.0514
1342.3573	 0.0511
1344.2860	 0.0508
1346.2147	 0.0504
1348.1433	 0.0503
1350.0720	 0.0504
1352.0007	 0.0507
1353.9294	 0.0511
1355.8580	 0.0517
1357.7867	 0.0523
1359.7154	 0.0529
1361.6441	 0.0536
1363.5727	 0.0544
1365.5014	 0.0552
1367.4301	 0.0558
1369.3588	 0.0562
1371.2874	 0.0563
1373.2161	 0.0557
1375.1448	 0.0548
1377.0735	 0.0540
1379.0021	 0.0528
1380.9308	 0.0513
1382.8595	 0.0496
1384.7882	 0.0480
1386.7168	 0.0464
1388.6455	 0.0451
1390.5742	 0.0442
1392.5029	 0.0435
1394.4315	 0.0429
1396.3602	 0.0426
1398.2889	 0.0427
1400.2176	 0.0431
1402.1462	 0.0436
1404.0749	 0.0441
1406.0036	 0.0449
1407.9323	 0.0459
1409.8609	 0.0470
1411.7896	 0.0482
1413.7183	 0.0496
1415.6469	 0.0508
1417.5756	 0.0516
1419.5043	 0.0526
1421.4330	 0.0535
1423.3616	 0.0536
1425.2903	 0.0531
1427.2190	 0.0524
1429.1477	 0.0512
1431.0763	 0.0498
1433.0050	 0.0485
1434.9337	 0.0471
1436.8624	 0.0455
1438.7910	 0.0448
1440.7197	 0.0447
1442.6484	 0.0449
1444.5771	 0.0456
1446.5057	 0.0465
1448.4344	 0.0477
1450.3631	 0.0487
1452.2918	 0.0490
1454.2204	 0.0487
1456.1491	 0.0477
1458.0778	 0.0467
1460.0065	 0.0470
1461.9351	 0.0472
1463.8638	 0.0467
1465.7925	 0.0456
1467.7212	 0.0441
1469.6498	 0.0420
1471.5785	 0.0389
1473.5072	 0.0356
1475.4359	 0.0338
1477.3645	 0.0324
1479.2932	 0.0314
1481.2219	 0.0306
1483.1505	 0.0301
1485.0792	 0.0298
1487.0079	 0.0295
1488.9366	 0.0294
1490.8652	 0.0302
1492.7939	 0.0315
1494.7226	 0.0325
1496.6513	 0.0341
1498.5799	 0.0364
1500.5086	 0.0391
1502.4373	 0.0418
1504.3660	 0.0438
1506.2946	 0.0455
1508.2233	 0.0477
1510.1520	 0.0484
1512.0807	 0.0474
1514.0093	 0.0451
1515.9380	 0.0415
1517.8667	 0.0369
1519.7954	 0.0332
1521.7240	 0.0288
1523.6527	 0.0260
1525.5814	 0.0244
1527.5101	 0.0229
1529.4387	 0.0221
1531.3674	 0.0213
1533.2961	 0.0203
1535.2248	 0.0200
1537.1534	 0.0197
1539.0821	 0.0187
1541.0108	 0.0183
1542.9395	 0.0188
1544.8681	 0.0193
1546.7968	 0.0197
1548.7255	 0.0198
1550.6542	 0.0198
1552.5828	 0.0199
1554.5115	 0.0199
1556.4402	 0.0196
1558.3688	 0.0190
1560.2975	 0.0200
1562.2262	 0.0212
1564.1549	 0.0217
1566.0835	 0.0223
1568.0122	 0.0228
1569.9409	 0.0236
1571.8696	 0.0250
1573.7982	 0.0259
1575.7269	 0.0270
1577.6556	 0.0290
1579.5843	 0.0307
1581.5129	 0.0324
1583.4416	 0.0340
1585.3703	 0.0356
1587.2990	 0.0370
1589.2276	 0.0384
1591.1563	 0.0397
1593.0850	 0.0406
1595.0137	 0.0414
1596.9423	 0.0422
1598.8710	 0.0428
1600.7997	 0.0434
1602.7284	 0.0440
1604.6570	 0.0446
1606.5857	 0.0450
1608.5144	 0.0453
1610.4431	 0.0457
1612.3717	 0.0461
1614.3004	 0.0464
1616.2291	 0.0465
1618.1578	 0.0472
1620.0864	 0.0480
1622.0151	 0.0483
1623.9438	 0.0487
1625.8724	 0.0493
1627.8011	 0.0497
1629.7298	 0.0502
1631.6585	 0.0505
1633.5871	 0.0504
1635.5158	 0.0499
1637.4445	 0.0501
1639.3732	 0.0504
1641.3018	 0.0504
1643.2305	 0.0501
1645.1592	 0.0494
1647.0879	 0.0485
1649.0165	 0.0485
1650.9452	 0.0483
1652.8739	 0.0469
1654.8026	 0.0465
1656.7312	 0.0467
1658.6599	 0.0460
1660.5886	 0.0449
1662.5173	 0.0433
1664.4459	 0.0419
1666.3746	 0.0407
1668.3033	 0.0389
1670.2320	 0.0368
1672.1606	 0.0355
1674.0893	 0.0342
1676.0180	 0.0325
1677.9467	 0.0314
1679.8753	 0.0302
1681.8040	 0.0288
1683.7327	 0.0270
1685.6614	 0.0259
1687.5900	 0.0256
1689.5187	 0.0248
1691.4474	 0.0240
1693.3760	 0.0233
1695.3047	 0.0221
1697.2334	 0.0211
1699.1621	 0.0206
1701.0907	 0.0200
1703.0194	 0.0201
1704.9481	 0.0199
1706.8768	 0.0198
1708.8054	 0.0200
1710.7341	 0.0202
1712.6628	 0.0202
1714.5915	 0.0200
1716.5201	 0.0199
1718.4488	 0.0203
1720.3775	 0.0210
1722.3062	 0.0214
1724.2348	 0.0216
1726.1635	 0.0218
1728.0922	 0.0218
1730.0209	 0.0216
1731.9495	 0.0214
1733.8782	 0.0210
1735.8069	 0.0212
1737.7356	 0.0211
1739.6642	 0.0206
1741.5929	 0.0201
1743.5216	 0.0196
1745.4503	 0.0189
1747.3789	 0.0179
1749.3076	 0.0168
1751.2363	 0.0158
1753.1650	 0.0151
1755.0936	 0.0143
1757.0223	 0.0133
1758.9510	 0.0125
1760.8797	 0.0117
1762.8083	 0.0110
1764.7370	 0.0106
1766.6657	 0.0101
1768.5943	 0.0095
1770.5230	 0.0089
1772.4517	 0.0084
1774.3804	 0.0083
1776.3090	 0.0084
1778.2377	 0.0082
1780.1664	 0.0080
1782.0951	 0.0079
1784.0237	 0.0078
1785.9524	 0.0077
1787.8811	 0.0076
1789.8098	 0.0074
1791.7384	 0.0070
1793.6671	 0.0070
1795.5958	 0.0071
1797.5245	 0.0071
1799.4531	 0.0069
1801.3818	 0.0069
1803.3105	 0.0070
1805.2392	 0.0070
1807.1678	 0.0069
1809.0965	 0.0068
1811.0252	 0.0067
1812.9539	 0.0067
1814.8825	 0.0068
1816.8112	 0.0067
1818.7399	 0.0067
1820.6686	 0.0067
1822.5972	 0.0066
1824.5259	 0.0064
1826.4546	 0.0064
1828.3833	 0.0063
1830.3119	 0.0062
1832.2406	 0.0064
1834.1693	 0.0065
1836.0979	 0.0064
1838.0266	 0.0064
1839.9553	 0.0064
1841.8840	 0.0063
1843.8126	 0.0060
1845.7413	 0.0061
1847.6700	 0.0063
1849.5987	 0.0063
1851.5273	 0.0064
1853.4560	 0.0064
1855.3847	 0.0063
1857.3134	 0.0063
1859.2420	 0.0063
1861.1707	 0.0063
1863.0994	 0.0063
1865.0281	 0.0062
1866.9567	 0.0060
1868.8854	 0.0059
1870.8141	 0.0061
1872.7428	 0.0063
1874.6714	 0.0063
1876.6001	 0.0063
1878.5288	 0.0063
1880.4575	 0.0063
1882.3861	 0.0063
1884.3148	 0.0063
1886.2435	 0.0063
1888.1722	 0.0062
1890.1008	 0.0062
1892.0295	 0.0063
1893.9582	 0.0062
1895.8869	 0.0062
1897.8155	 0.0063
1899.7442	 0.0063
1901.6729	 0.0063
1903.6016	 0.0063
1905.5302	 0.0063
1907.4589	 0.0063
1909.3876	 0.0062
1911.3162	 0.0062
1913.2449	 0.0063
1915.1736	 0.0063
1917.1023	 0.0062
1919.0309	 0.0062
1920.9596	 0.0062
1922.8883	 0.0062
1924.8170	 0.0063
1926.7456	 0.0064
1928.6743	 0.0064
1930.6030	 0.0064
1932.5317	 0.0064
1934.4603	 0.0064
1936.3890	 0.0064
1938.3177	 0.0065
1940.2464	 0.0064
1942.1750	 0.0063
1944.1037	 0.0064
1946.0324	 0.0065
1947.9611	 0.0065
1949.8897	 0.0066
1951.8184	 0.0066
1953.7471	 0.0066
1955.6758	 0.0066
1957.6044	 0.0066
1959.5331	 0.0066
1961.4618	 0.0067
1963.3905	 0.0067
1965.3191	 0.0066
1967.2478	 0.0066
1969.1765	 0.0067
1971.1052	 0.0068
1973.0338	 0.0068
1974.9625	 0.0068
1976.8912	 0.0068
1978.8198	 0.0069
1980.7485	 0.0069
1982.6772	 0.0069
1984.6059	 0.0069
1986.5345	 0.0069
1988.4632	 0.0069
1990.3919	 0.0069
1992.3206	 0.0069
1994.2492	 0.0070
1996.1779	 0.0070
1998.1066	 0.0071
2000.0353	 0.0071
2001.9639	 0.0071
2003.8926	 0.0071
2005.8213	 0.0072
2007.7500	 0.0072
2009.6786	 0.0072
2011.6073	 0.0072
2013.5360	 0.0073
2015.4647	 0.0073
2017.3933	 0.0073
2019.3220	 0.0074
2021.2507	 0.0074
2023.1794	 0.0074
2025.1080	 0.0075
2027.0367	 0.0075
2028.9654	 0.0075
2030.8941	 0.0076
2032.8227	 0.0076
2034.7514	 0.0076
2036.6801	 0.0076
2038.6088	 0.0076
2040.5374	 0.0077
2042.4661	 0.0077
2044.3948	 0.0077
2046.3234	 0.0077
2048.2521	 0.0078
2050.1808	 0.0078
2052.1095	 0.0078
2054.0381	 0.0078
2055.9668	 0.0078
2057.8955	 0.0078
2059.8242	 0.0078
2061.7528	 0.0078
2063.6815	 0.0078
2065.6102	 0.0078
2067.5389	 0.0078
2069.4675	 0.0078
2071.3962	 0.0078
2073.3249	 0.0078
2075.2536	 0.0078
2077.1822	 0.0079
2079.1109	 0.0079
2081.0396	 0.0079
2082.9683	 0.0079
2084.8969	 0.0079
2086.8256	 0.0079
2088.7543	 0.0079
2090.6830	 0.0079
2092.6116	 0.0079
2094.5403	 0.0079
2096.4690	 0.0079
2098.3977	 0.0079
2100.3263	 0.0079
2102.2550	 0.0079
2104.1837	 0.0079
2106.1124	 0.0079
2108.0410	 0.0079
2109.9697	 0.0079
2111.8984	 0.0079
2113.8271	 0.0080
2115.7557	 0.0079
2117.6844	 0.0079
2119.6131	 0.0079
2121.5417	 0.0079
2123.4704	 0.0079
2125.3991	 0.0079
2127.3278	 0.0079
2129.2564	 0.0079
2131.1851	 0.0079
2133.1138	 0.0079
2135.0425	 0.0079
2136.9711	 0.0079
2138.8998	 0.0079
2140.8285	 0.0079
2142.7572	 0.0078
2144.6858	 0.0078
2146.6145	 0.0078
2148.5432	 0.0078
2150.4719	 0.0078
2152.4005	 0.0078
2154.3292	 0.0077
2156.2579	 0.0077
2158.1866	 0.0077
2160.1152	 0.0077
2162.0439	 0.0076
2163.9726	 0.0076
2165.9013	 0.0076
2167.8299	 0.0076
2169.7586	 0.0076
2171.6873	 0.0075
2173.6160	 0.0075
2175.5446	 0.0075
2177.4733	 0.0074
2179.4020	 0.0074
2181.3307	 0.0074
2183.2593	 0.0074
2185.1880	 0.0073
2187.1167	 0.0073
2189.0453	 0.0072
2190.9740	 0.0072
2192.9027	 0.0072
2194.8314	 0.0072
2196.7600	 0.0071
2198.6887	 0.0071
2200.6174	 0.0071
2202.5461	 0.0071
2204.4747	 0.0070
2206.4034	 0.0070
2208.3321	 0.0070
2210.2608	 0.0070
2212.1894	 0.0070
2214.1181	 0.0069
2216.0468	 0.0069
2217.9755	 0.0069
2219.9041	 0.0069
2221.8328	 0.0068
2223.7615	 0.0068
2225.6902	 0.0067
2227.6188	 0.0067
2229.5475	 0.0067
2231.4762	 0.0067
2233.4049	 0.0067
2235.3335	 0.0067
2237.2622	 0.0066
2239.1909	 0.0066
2241.1196	 0.0066
2243.0482	 0.0066
2244.9769	 0.0065
2246.9056	 0.0065
2248.8343	 0.0066
2250.7629	 0.0066
2252.6916	 0.0066
2254.6203	 0.0065
2256.5490	 0.0065
2258.4776	 0.0065
2260.4063	 0.0064
2262.3350	 0.0064
2264.2636	 0.0064
2266.1923	 0.0064
2268.1210	 0.0064
2270.0497	 0.0064
2271.9783	 0.0063
2273.9070	 0.0063
2275.8357	 0.0063
2277.7644	 0.0063
2279.6930	 0.0063
2281.6217	 0.0063
2283.5504	 0.0062
2285.4791	 0.0062
2287.4077	 0.0062
2289.3364	 0.0063
2291.2651	 0.0063
2293.1938	 0.0063
2295.1224	 0.0063
2297.0511	 0.0064
2298.9798	 0.0064
2300.9085	 0.0064
2302.8371	 0.0065
2304.7658	 0.0065
2306.6945	 0.0066
2308.6232	 0.0067
2310.5518	 0.0068
2312.4805	 0.0068
2314.4092	 0.0069
2316.3379	 0.0069
2318.2665	 0.0071
2320.1952	 0.0072
2322.1239	 0.0073
2324.0526	 0.0073
2325.9812	 0.0074
2327.9099	 0.0075
2329.8386	 0.0076
2331.7672	 0.0076
2333.6959	 0.0075
2335.6246	 0.0075
2337.5533	 0.0075
2339.4819	 0.0076
2341.4106	 0.0077
2343.3393	 0.0077
2345.2680	 0.0075
2347.1966	 0.0072
2349.1253	 0.0071
2351.0540	 0.0073
2352.9827	 0.0077
2354.9113	 0.0079
2356.8400	 0.0081
2358.7687	 0.0081
2360.6974	 0.0082
2362.6260	 0.0081
2364.5547	 0.0080
2366.4834	 0.0078
2368.4121	 0.0077
2370.3407	 0.0074
2372.2694	 0.0072
2374.1981	 0.0069
2376.1268	 0.0067
2378.0554	 0.0065
2379.9841	 0.0064
2381.9128	 0.0061
2383.8415	 0.0060
2385.7701	 0.0059
2387.6988	 0.0058
2389.6275	 0.0058
2391.5562	 0.0058
2393.4848	 0.0058
2395.4135	 0.0058
2397.3422	 0.0058
2399.2708	 0.0058
2401.1995	 0.0058
2403.1282	 0.0058
2405.0569	 0.0058
2406.9855	 0.0058
2408.9142	 0.0058
2410.8429	 0.0058
2412.7716	 0.0059
2414.7002	 0.0059
2416.6289	 0.0059
2418.5576	 0.0059
2420.4863	 0.0059
2422.4149	 0.0059
2424.3436	 0.0059
2426.2723	 0.0059
2428.2010	 0.0059
2430.1296	 0.0060
2432.0583	 0.0060
2433.9870	 0.0060
2435.9157	 0.0060
2437.8443	 0.0060
2439.7730	 0.0060
2441.7017	 0.0060
2443.6304	 0.0060
2445.5590	 0.0061
2447.4877	 0.0061
2449.4164	 0.0061
2451.3451	 0.0061
2453.2737	 0.0061
2455.2024	 0.0061
2457.1311	 0.0061
2459.0598	 0.0062
2460.9884	 0.0062
2462.9171	 0.0062
2464.8458	 0.0062
2466.7745	 0.0062
2468.7031	 0.0062
2470.6318	 0.0062
2472.5605	 0.0062
2474.4891	 0.0062
2476.4178	 0.0063
2478.3465	 0.0063
2480.2752	 0.0062
2482.2038	 0.0063
2484.1325	 0.0063
2486.0612	 0.0063
2487.9899	 0.0063
2489.9185	 0.0064
2491.8472	 0.0064
2493.7759	 0.0064
2495.7046	 0.0064
2497.6332	 0.0064
2499.5619	 0.0064
2501.4906	 0.0064
2503.4193	 0.0064
2505.3479	 0.0065
2507.2766	 0.0065
2509.2053	 0.0065
2511.1340	 0.0065
2513.0626	 0.0065
2514.9913	 0.0065
2516.9200	 0.0066
2518.8487	 0.0066
2520.7773	 0.0066
2522.7060	 0.0066
2524.6347	 0.0066
2526.5634	 0.0066
2528.4920	 0.0066
2530.4207	 0.0066
2532.3494	 0.0067
2534.2781	 0.0067
2536.2067	 0.0067
2538.1354	 0.0067
2540.0641	 0.0067
2541.9927	 0.0067
2543.9214	 0.0068
2545.8501	 0.0068
2547.7788	 0.0068
2549.7074	 0.0068
2551.6361	 0.0068
2553.5648	 0.0068
2555.4935	 0.0068
2557.4221	 0.0069
2559.3508	 0.0069
2561.2795	 0.0069
2563.2082	 0.0069
2565.1368	 0.0069
2567.0655	 0.0069
2568.9942	 0.0069
2570.9229	 0.0069
2572.8515	 0.0070
2574.7802	 0.0070
2576.7089	 0.0070
2578.6376	 0.0070
2580.5662	 0.0070
2582.4949	 0.0070
2584.4236	 0.0070
2586.3523	 0.0071
2588.2809	 0.0071
2590.2096	 0.0071
2592.1383	 0.0072
2594.0670	 0.0072
2595.9956	 0.0072
2597.9243	 0.0072
2599.8530	 0.0072
2601.7817	 0.0073
2603.7103	 0.0073
2605.6390	 0.0073
2607.5677	 0.0073
2609.4964	 0.0074
2611.4250	 0.0074
2613.3537	 0.0074
2615.2824	 0.0074
2617.2110	 0.0075
2619.1397	 0.0075
2621.0684	 0.0075
2622.9971	 0.0076
2624.9257	 0.0076
2626.8544	 0.0076
2628.7831	 0.0077
2630.7118	 0.0077
2632.6404	 0.0077
2634.5691	 0.0078
2636.4978	 0.0078
2638.4265	 0.0078
2640.3551	 0.0079
2642.2838	 0.0079
2644.2125	 0.0079
2646.1412	 0.0080
2648.0698	 0.0080
2649.9985	 0.0081
2651.9272	 0.0081
2653.8559	 0.0082
2655.7845	 0.0082
2657.7132	 0.0082
2659.6419	 0.0083
2661.5706	 0.0083
2663.4992	 0.0083
2665.4279	 0.0084
2667.3566	 0.0084
2669.2853	 0.0084
2671.2139	 0.0085
2673.1426	 0.0085
2675.0713	 0.0086
2677.0000	 0.0086
2678.9286	 0.0087
2680.8573	 0.0088
2682.7860	 0.0088
2684.7146	 0.0088
2686.6433	 0.0089
2688.5720	 0.0090
2690.5007	 0.0090
2692.4293	 0.0091
2694.3580	 0.0091
2696.2867	 0.0091
2698.2154	 0.0091
2700.1440	 0.0092
2702.0727	 0.0093
2704.0014	 0.0093
2705.9301	 0.0093
2707.8587	 0.0094
2709.7874	 0.0095
2711.7161	 0.0095
2713.6448	 0.0096
2715.5734	 0.0096
2717.5021	 0.0097
2719.4308	 0.0097
2721.3595	 0.0098
2723.2881	 0.0098
2725.2168	 0.0098
2727.1455	 0.0099
2729.0742	 0.0100
2731.0028	 0.0100
2732.9315	 0.0101
2734.8602	 0.0101
2736.7889	 0.0101
2738.7175	 0.0102
2740.6462	 0.0102
2742.5749	 0.0102
2744.5036	 0.0102
2746.4322	 0.0103
2748.3609	 0.0103
2750.2896	 0.0104
2752.2182	 0.0104
2754.1469	 0.0105
