DATATYPE	 IR Spectrum
XYUNITS	 Wavenumber;Absorbance
DECIMALSYMBOL	 .
599.8177	 0.2213
601.7464	 0.2202
603.6751	 0.2183
605.6037	 0.2161
607.5324	 0.2144
609.4611	 0.2130
611.3898	 0.2114
613.3184	 0.2102
615.2471	 0.2084
617.1758	 0.2051
619.1045	 0.2027
621.0331	 0.2014
622.9618	 0.2003
624.8905	 0.1988
626.8192	 0.1975
628.7478	 0.1965
630.6765	 0.1952
632.6052	 0.1936
634.5339	 0.1922
636.4625	 0.1909
638.3912	 0.1899
640.3199	 0.1891
642.2485	 0.1878
644.1772	 0.1865
646.1059	 0.1855
648.0346	 0.1844
649.9632	 0.1835
651.8919	 0.1829
653.8206	 0.1821
655.7493	 0.1813
657.6779	 0.1810
659.6066	 0.1804
661.5353	 0.1792
663.4640	 0.1778
665.3926	 0.1770
667.3213	 0.1753
669.2500	 0.1721
671.1787	 0.1705
673.1073	 0.1686
675.0360	 0.1659
676.9647	 0.1631
678.8934	 0.1607
680.8220	 0.1589
682.7507	 0.1572
684.6794	 0.1558
686.6081	 0.1548
688.5367	 0.1540
690.4654	 0.1531
692.3941	 0.1521
694.3228	 0.1513
696.2514	 0.1505
698.1801	 0.1496
700.1088	 0.1486
702.0375	 0.1477
703.9661	 0.1467
705.8948	 0.1458
707.8235	 0.1448
709.7521	 0.1436
711.6808	 0.1424
713.6095	 0.1412
715.5382	 0.1399
717.4668	 0.1387
719.3955	 0.1372
721.3242	 0.1357
723.2529	 0.1344
725.1815	 0.1330
727.1102	 0.1315
729.0389	 0.1299
730.9676	 0.1286
732.8962	 0.1275
734.8249	 0.1262
736.7536	 0.1250
738.6823	 0.1240
740.6109	 0.1230
742.5396	 0.1219
744.4683	 0.1208
746.3970	 0.1198
748.3256	 0.1187
750.2543	 0.1175
752.1830	 0.1164
754.1117	 0.1153
756.0403	 0.1143
757.9690	 0.1132
759.8977	 0.1121
761.8264	 0.1110
763.7550	 0.1100
765.6837	 0.1091
767.6124	 0.1081
769.5411	 0.1070
771.4697	 0.1059
773.3984	 0.1049
775.3271	 0.1037
777.2557	 0.1025
779.1844	 0.1015
781.1131	 0.1005
783.0418	 0.0994
784.9704	 0.0985
786.8991	 0.0976
788.8278	 0.0968
790.7565	 0.0960
792.6851	 0.0952
794.6138	 0.0944
796.5425	 0.0937
798.4712	 0.0930
800.3998	 0.0924
802.3285	 0.0917
804.2572	 0.0910
806.1859	 0.0904
808.1145	 0.0897
810.0432	 0.0891
811.9719	 0.0885
813.9006	 0.0879
815.8292	 0.0873
817.7579	 0.0867
819.6866	 0.0861
821.6153	 0.0855
823.5439	 0.0849
825.4726	 0.0843
827.4013	 0.0837
829.3300	 0.0830
831.2586	 0.0822
833.1873	 0.0814
835.1160	 0.0806
837.0447	 0.0798
838.9733	 0.0791
840.9020	 0.0782
842.8307	 0.0773
844.7594	 0.0765
846.6880	 0.0756
848.6167	 0.0748
850.5454	 0.0740
852.4740	 0.0733
854.4027	 0.0726
856.3314	 0.0720
858.2601	 0.0715
860.1887	 0.0710
862.1174	 0.0706
864.0461	 0.0704
865.9748	 0.0704
867.9034	 0.0703
869.8321	 0.0702
871.7608	 0.0701
873.6895	 0.0699
875.6181	 0.0695
877.5468	 0.0693
879.4755	 0.0691
881.4042	 0.0691
883.3328	 0.0693
885.2615	 0.0698
887.1902	 0.0707
889.1189	 0.0718
891.0475	 0.0732
892.9762	 0.0745
894.9049	 0.0756
896.8336	 0.0763
898.7622	 0.0761
900.6909	 0.0750
902.6196	 0.0733
904.5483	 0.0714
906.4769	 0.0695
908.4056	 0.0679
910.3343	 0.0669
912.2630	 0.0661
914.1916	 0.0655
916.1203	 0.0651
918.0490	 0.0649
919.9776	 0.0648
921.9063	 0.0648
923.8350	 0.0649
925.7637	 0.0650
927.6923	 0.0651
929.6210	 0.0650
931.5497	 0.0649
933.4784	 0.0648
935.4070	 0.0647
937.3357	 0.0648
939.2644	 0.0650
941.1931	 0.0654
943.1217	 0.0662
945.0504	 0.0674
946.9791	 0.0687
948.9078	 0.0705
950.8364	 0.0726
952.7651	 0.0751
954.6938	 0.0778
956.6225	 0.0808
958.5511	 0.0840
960.4798	 0.0874
962.4085	 0.0910
964.3372	 0.0947
966.2658	 0.0983
968.1945	 0.1020
970.1232	 0.1058
972.0519	 0.1099
973.9805	 0.1144
975.9092	 0.1195
977.8379	 0.1254
979.7666	 0.1320
981.6952	 0.1392
983.6239	 0.1465
985.5526	 0.1532
987.4812	 0.1591
989.4099	 0.1643
991.3386	 0.1689
993.2673	 0.1728
995.1959	 0.1759
997.1246	 0.1786
999.0533	 0.1812
1000.9820	 0.1840
1002.9106	 0.1872
1004.8393	 0.1909
1006.7680	 0.1955
1008.6967	 0.2009
1010.6253	 0.2073
1012.5540	 0.2143
1014.4827	 0.2218
1016.4114	 0.2289
1018.3400	 0.2356
1020.2687	 0.2416
1022.1974	 0.2471
1024.1261	 0.2520
1026.0547	 0.2566
1027.9834	 0.2611
1029.9121	 0.2650
1031.8408	 0.2680
1033.7694	 0.2692
1035.6981	 0.2682
1037.6268	 0.2656
1039.5555	 0.2625
1041.4841	 0.2596
1043.4128	 0.2570
1045.3415	 0.2544
1047.2702	 0.2512
1049.1988	 0.2472
1051.1275	 0.2422
1053.0562	 0.2366
1054.9849	 0.2303
1056.9135	 0.2238
1058.8422	 0.2172
1060.7709	 0.2100
1062.6995	 0.2022
1064.6282	 0.1949
1066.5569	 0.1889
1068.4856	 0.1844
1070.4142	 0.1809
1072.3429	 0.1778
1074.2716	 0.1748
1076.2003	 0.1715
1078.1289	 0.1680
1080.0576	 0.1642
1081.9863	 0.1604
1083.9150	 0.1571
1085.8436	 0.1539
1087.7723	 0.1509
1089.7010	 0.1480
1091.6297	 0.1452
1093.5583	 0.1427
1095.4870	 0.1408
1097.4157	 0.1393
1099.3444	 0.1384
1101.2730	 0.1379
1103.2017	 0.1377
1105.1304	 0.1376
1107.0591	 0.1373
1108.9877	 0.1369
1110.9164	 0.1362
1112.8451	 0.1348
1114.7738	 0.1328
1116.7024	 0.1303
1118.6311	 0.1281
1120.5598	 0.1263
1122.4885	 0.1243
1124.4171	 0.1217
1126.3458	 0.1182
1128.2745	 0.1137
1130.2031	 0.1087
1132.1318	 0.1035
1134.0605	 0.0985
1135.9892	 0.0942
1137.9178	 0.0910
1139.8465	 0.0889
1141.7752	 0.0880
1143.7039	 0.0879
1145.6325	 0.0883
1147.5612	 0.0889
1149.4899	 0.0894
1151.4186	 0.0900
1153.3472	 0.0905
1155.2759	 0.0906
1157.2046	 0.0902
1159.1333	 0.0890
1161.0619	 0.0868
1162.9906	 0.0833
1164.9193	 0.0787
1166.8480	 0.0734
1168.7766	 0.0682
1170.7053	 0.0635
1172.6340	 0.0594
1174.5627	 0.0560
1176.4913	 0.0532
1178.4200	 0.0510
1180.3487	 0.0493
1182.2774	 0.0481
1184.2060	 0.0473
1186.1347	 0.0467
1188.0634	 0.0464
1189.9921	 0.0465
1191.9207	 0.0469
1193.8494	 0.0478
1195.7781	 0.0490
1197.7068	 0.0506
1199.6354	 0.0523
1201.5641	 0.0542
1203.4928	 0.0560
1205.4214	 0.0579
1207.3501	 0.0598
1209.2788	 0.0616
1211.2075	 0.0636
1213.1361	 0.0659
1215.0648	 0.0683
1216.9935	 0.0707
1218.9222	 0.0730
1220.8508	 0.0752
1222.7795	 0.0771
1224.7082	 0.0789
1226.6369	 0.0806
1228.5655	 0.0822
1230.4942	 0.0836
1232.4229	 0.0847
1234.3516	 0.0856
1236.2802	 0.0864
1238.2089	 0.0869
1240.1376	 0.0873
1242.0663	 0.0874
1243.9949	 0.0872
1245.9236	 0.0867
1247.8523	 0.0859
1249.7810	 0.0849
1251.7096	 0.0837
1253.6383	 0.0824
1255.5670	 0.0810
1257.4957	 0.0796
1259.4243	 0.0780
1261.3530	 0.0763
1263.2817	 0.0746
1265.2104	 0.0727
1267.1390	 0.0707
1269.0677	 0.0686
1270.9964	 0.0665
1272.9250	 0.0642
1274.8537	 0.0619
1276.7824	 0.0596
1278.7111	 0.0576
1280.6397	 0.0558
1282.5684	 0.0542
1284.4971	 0.0527
1286.4258	 0.0514
1288.3544	 0.0504
1290.2831	 0.0498
1292.2118	 0.0493
1294.1405	 0.0491
1296.0691	 0.0491
1297.9978	 0.0495
1299.9265	 0.0501
1301.8552	 0.0508
1303.7838	 0.0518
1305.7125	 0.0530
1307.6412	 0.0543
1309.5699	 0.0557
1311.4985	 0.0572
1313.4272	 0.0586
1315.3559	 0.0599
1317.2846	 0.0609
1319.2132	 0.0616
1321.1419	 0.0620
1323.0706	 0.0623
1324.9993	 0.0624
1326.9279	 0.0625
1328.8566	 0.0624
1330.7853	 0.0622
1332.7140	 0.0617
1334.6426	 0.0610
1336.5713	 0.0601
1338.5000	 0.0590
1340.4286	 0.0580
1342.3573	 0.0572
1344.2860	 0.0565
1346.2147	 0.0561
1348.1433	 0.0558
1350.0720	 0.0559
1352.0007	 0.0562
1353.9294	 0.0568
1355.8580	 0.0575
1357.7867	 0.0585
1359.7154	 0.0598
1361.6441	 0.0610
1363.5727	 0.0622
1365.5014	 0.0633
1367.4301	 0.0641
1369.3588	 0.0647
1371.2874	 0.0651
1373.2161	 0.0651
1375.1448	 0.0647
1377.0735	 0.0640
1379.0021	 0.0626
1380.9308	 0.0607
1382.8595	 0.0584
1384.7882	 0.0563
1386.7168	 0.0542
1388.6455	 0.0522
1390.5742	 0.0509
1392.5029	 0.0500
1394.4315	 0.0493
1396.3602	 0.0489
1398.2889	 0.0488
1400.2176	 0.0489
1402.1462	 0.0491
1404.0749	 0.0496
1406.0036	 0.0503
1407.9323	 0.0512
1409.8609	 0.0523
1411.7896	 0.0537
1413.7183	 0.0552
1415.6469	 0.0568
1417.5756	 0.0581
1419.5043	 0.0592
1421.4330	 0.0597
1423.3616	 0.0597
1425.2903	 0.0590
1427.2190	 0.0578
1429.1477	 0.0561
1431.0763	 0.0540
1433.0050	 0.0520
1434.9337	 0.0503
1436.8624	 0.0483
1438.7910	 0.0471
1440.7197	 0.0467
1442.6484	 0.0467
1444.5771	 0.0470
1446.5057	 0.0477
1448.4344	 0.0487
1450.3631	 0.0497
1452.2918	 0.0506
1454.2204	 0.0513
1456.1491	 0.0518
1458.0778	 0.0520
1460.0065	 0.0521
1461.9351	 0.0521
1463.8638	 0.0515
1465.7925	 0.0498
1467.7212	 0.0475
1469.6498	 0.0450
1471.5785	 0.0417
1473.5072	 0.0377
1475.4359	 0.0349
1477.3645	 0.0327
1479.2932	 0.0311
1481.2219	 0.0299
1483.1505	 0.0290
1485.0792	 0.0286
1487.0079	 0.0285
1488.9366	 0.0287
1490.8652	 0.0294
1492.7939	 0.0304
1494.7226	 0.0316
1496.6513	 0.0333
1498.5799	 0.0353
1500.5086	 0.0370
1502.4373	 0.0383
1504.3660	 0.0390
1506.2946	 0.0388
1508.2233	 0.0376
1510.1520	 0.0366
1512.0807	 0.0351
1514.0093	 0.0334
1515.9380	 0.0316
1517.8667	 0.0295
1519.7954	 0.0280
1521.7240	 0.0263
1523.6527	 0.0251
1525.5814	 0.0245
1527.5101	 0.0240
1529.4387	 0.0237
1531.3674	 0.0235
1533.2961	 0.0234
1535.2248	 0.0235
1537.1534	 0.0236
1539.0821	 0.0237
1541.0108	 0.0239
1542.9395	 0.0242
1544.8681	 0.0247
1546.7968	 0.0251
1548.7255	 0.0255
1550.6542	 0.0259
1552.5828	 0.0263
1554.5115	 0.0268
1556.4402	 0.0272
1558.3688	 0.0276
1560.2975	 0.0285
1562.2262	 0.0291
1564.1549	 0.0298
1566.0835	 0.0307
1568.0122	 0.0316
1569.9409	 0.0328
1571.8696	 0.0341
1573.7982	 0.0353
1575.7269	 0.0369
1577.6556	 0.0391
1579.5843	 0.0410
1581.5129	 0.0431
1583.4416	 0.0454
1585.3703	 0.0479
1587.2990	 0.0504
1589.2276	 0.0529
1591.1563	 0.0549
1593.0850	 0.0563
1595.0137	 0.0569
1596.9423	 0.0567
1598.8710	 0.0563
1600.7997	 0.0557
1602.7284	 0.0553
1604.6570	 0.0550
1606.5857	 0.0549
1608.5144	 0.0548
1610.4431	 0.0549
1612.3717	 0.0553
1614.3004	 0.0557
1616.2291	 0.0563
1618.1578	 0.0570
1620.0864	 0.0577
1622.0151	 0.0583
1623.9438	 0.0589
1625.8724	 0.0594
1627.8011	 0.0599
1629.7298	 0.0603
1631.6585	 0.0607
1633.5871	 0.0610
1635.5158	 0.0610
1637.4445	 0.0609
1639.3732	 0.0609
1641.3018	 0.0608
1643.2305	 0.0606
1645.1592	 0.0603
1647.0879	 0.0595
1649.0165	 0.0589
1650.9452	 0.0586
1652.8739	 0.0574
1654.8026	 0.0557
1656.7312	 0.0550
1658.6599	 0.0540
1660.5886	 0.0528
1662.5173	 0.0512
1664.4459	 0.0495
1666.3746	 0.0483
1668.3033	 0.0468
1670.2320	 0.0449
1672.1606	 0.0434
1674.0893	 0.0422
1676.0180	 0.0403
1677.9467	 0.0390
1679.8753	 0.0378
1681.8040	 0.0367
1683.7327	 0.0353
1685.6614	 0.0336
1687.5900	 0.0328
1689.5187	 0.0319
1691.4474	 0.0310
1693.3760	 0.0304
1695.3047	 0.0296
1697.2334	 0.0289
1699.1621	 0.0286
1701.0907	 0.0283
1703.0194	 0.0282
1704.9481	 0.0284
1706.8768	 0.0288
1708.8054	 0.0294
1710.7341	 0.0301
1712.6628	 0.0310
1714.5915	 0.0320
1716.5201	 0.0331
1718.4488	 0.0345
1720.3775	 0.0358
1722.3062	 0.0369
1724.2348	 0.0379
1726.1635	 0.0387
1728.0922	 0.0393
1730.0209	 0.0396
1731.9495	 0.0396
1733.8782	 0.0391
1735.8069	 0.0383
1737.7356	 0.0377
1739.6642	 0.0365
1741.5929	 0.0350
1743.5216	 0.0334
1745.4503	 0.0318
1747.3789	 0.0301
1749.3076	 0.0283
1751.2363	 0.0264
1753.1650	 0.0246
1755.0936	 0.0233
1757.0223	 0.0217
1758.9510	 0.0202
1760.8797	 0.0189
1762.8083	 0.0174
1764.7370	 0.0163
1766.6657	 0.0153
1768.5943	 0.0143
1770.5230	 0.0136
1772.4517	 0.0128
1774.3804	 0.0122
1776.3090	 0.0118
1778.2377	 0.0114
1780.1664	 0.0109
1782.0951	 0.0105
1784.0237	 0.0102
1785.9524	 0.0099
1787.8811	 0.0096
1789.8098	 0.0093
1791.7384	 0.0090
1793.6671	 0.0087
1795.5958	 0.0085
1797.5245	 0.0082
1799.4531	 0.0080
1801.3818	 0.0078
1803.3105	 0.0076
1805.2392	 0.0074
1807.1678	 0.0072
1809.0965	 0.0071
1811.0252	 0.0069
1812.9539	 0.0068
1814.8825	 0.0067
1816.8112	 0.0066
1818.7399	 0.0065
1820.6686	 0.0064
1822.5972	 0.0063
1824.5259	 0.0062
1826.4546	 0.0061
1828.3833	 0.0061
1830.3119	 0.0060
1832.2406	 0.0060
1834.1693	 0.0059
1836.0979	 0.0059
1838.0266	 0.0058
1839.9553	 0.0058
1841.8840	 0.0057
1843.8126	 0.0057
1845.7413	 0.0056
1847.6700	 0.0056
1849.5987	 0.0056
1851.5273	 0.0056
1853.4560	 0.0055
1855.3847	 0.0055
1857.3134	 0.0055
1859.2420	 0.0055
1861.1707	 0.0055
1863.0994	 0.0055
1865.0281	 0.0054
1866.9567	 0.0054
1868.8854	 0.0054
1870.8141	 0.0054
1872.7428	 0.0054
1874.6714	 0.0054
1876.6001	 0.0054
1878.5288	 0.0054
1880.4575	 0.0053
1882.3861	 0.0053
1884.3148	 0.0054
1886.2435	 0.0054
1888.1722	 0.0053
1890.1008	 0.0053
1892.0295	 0.0053
1893.9582	 0.0053
1895.8869	 0.0053
1897.8155	 0.0053
1899.7442	 0.0053
1901.6729	 0.0053
1903.6016	 0.0053
1905.5302	 0.0053
1907.4589	 0.0053
1909.3876	 0.0053
1911.3162	 0.0054
1913.2449	 0.0054
1915.1736	 0.0054
1917.1023	 0.0054
1919.0309	 0.0054
1920.9596	 0.0054
1922.8883	 0.0054
1924.8170	 0.0054
1926.7456	 0.0054
1928.6743	 0.0054
1930.6030	 0.0055
1932.5317	 0.0055
1934.4603	 0.0055
1936.3890	 0.0055
1938.3177	 0.0055
1940.2464	 0.0056
1942.1750	 0.0056
1944.1037	 0.0056
1946.0324	 0.0056
1947.9611	 0.0057
1949.8897	 0.0057
1951.8184	 0.0057
1953.7471	 0.0057
1955.6758	 0.0057
1957.6044	 0.0057
1959.5331	 0.0057
1961.4618	 0.0057
1963.3905	 0.0058
1965.3191	 0.0058
1967.2478	 0.0058
1969.1765	 0.0058
1971.1052	 0.0058
1973.0338	 0.0058
1974.9625	 0.0058
1976.8912	 0.0058
1978.8198	 0.0058
1980.7485	 0.0058
1982.6772	 0.0059
1984.6059	 0.0059
1986.5345	 0.0059
1988.4632	 0.0059
1990.3919	 0.0059
1992.3206	 0.0060
1994.2492	 0.0060
1996.1779	 0.0060
1998.1066	 0.0060
2000.0353	 0.0061
2001.9639	 0.0061
2003.8926	 0.0061
2005.8213	 0.0061
2007.7500	 0.0062
2009.6786	 0.0062
2011.6073	 0.0062
2013.5360	 0.0063
2015.4647	 0.0063
2017.3933	 0.0063
2019.3220	 0.0063
2021.2507	 0.0064
2023.1794	 0.0064
2025.1080	 0.0065
2027.0367	 0.0066
2028.9654	 0.0066
2030.8941	 0.0066
2032.8227	 0.0066
2034.7514	 0.0066
2036.6801	 0.0067
2038.6088	 0.0067
2040.5374	 0.0067
2042.4661	 0.0067
2044.3948	 0.0068
2046.3234	 0.0068
2048.2521	 0.0068
2050.1808	 0.0068
2052.1095	 0.0068
2054.0381	 0.0069
2055.9668	 0.0069
2057.8955	 0.0069
2059.8242	 0.0069
2061.7528	 0.0069
2063.6815	 0.0069
2065.6102	 0.0070
2067.5389	 0.0070
2069.4675	 0.0070
2071.3962	 0.0070
2073.3249	 0.0070
2075.2536	 0.0070
2077.1822	 0.0070
2079.1109	 0.0070
2081.0396	 0.0070
2082.9683	 0.0070
2084.8969	 0.0071
2086.8256	 0.0071
2088.7543	 0.0071
2090.6830	 0.0071
2092.6116	 0.0071
2094.5403	 0.0071
2096.4690	 0.0071
2098.3977	 0.0071
2100.3263	 0.0072
2102.2550	 0.0072
2104.1837	 0.0072
2106.1124	 0.0072
2108.0410	 0.0072
2109.9697	 0.0072
2111.8984	 0.0072
2113.8271	 0.0072
2115.7557	 0.0072
2117.6844	 0.0072
2119.6131	 0.0072
2121.5417	 0.0072
2123.4704	 0.0072
2125.3991	 0.0072
2127.3278	 0.0072
2129.2564	 0.0072
2131.1851	 0.0072
2133.1138	 0.0072
2135.0425	 0.0072
2136.9711	 0.0072
2138.8998	 0.0072
2140.8285	 0.0071
2142.7572	 0.0071
2144.6858	 0.0071
2146.6145	 0.0071
2148.5432	 0.0071
2150.4719	 0.0071
2152.4005	 0.0071
2154.3292	 0.0070
2156.2579	 0.0070
2158.1866	 0.0070
2160.1152	 0.0070
2162.0439	 0.0070
2163.9726	 0.0069
2165.9013	 0.0069
2167.8299	 0.0068
2169.7586	 0.0068
2171.6873	 0.0068
2173.6160	 0.0067
2175.5446	 0.0067
2177.4733	 0.0066
2179.4020	 0.0066
2181.3307	 0.0066
2183.2593	 0.0065
2185.1880	 0.0065
2187.1167	 0.0064
2189.0453	 0.0064
2190.9740	 0.0064
2192.9027	 0.0064
2194.8314	 0.0063
2196.7600	 0.0063
2198.6887	 0.0062
2200.6174	 0.0062
2202.5461	 0.0062
2204.4747	 0.0062
2206.4034	 0.0062
2208.3321	 0.0061
2210.2608	 0.0061
2212.1894	 0.0060
2214.1181	 0.0060
2216.0468	 0.0060
2217.9755	 0.0060
2219.9041	 0.0059
2221.8328	 0.0059
2223.7615	 0.0059
2225.6902	 0.0059
2227.6188	 0.0059
2229.5475	 0.0058
2231.4762	 0.0058
2233.4049	 0.0058
2235.3335	 0.0058
2237.2622	 0.0058
2239.1909	 0.0058
2241.1196	 0.0058
2243.0482	 0.0057
2244.9769	 0.0057
2246.9056	 0.0056
2248.8343	 0.0056
2250.7629	 0.0056
2252.6916	 0.0055
2254.6203	 0.0055
2256.5490	 0.0055
2258.4776	 0.0055
2260.4063	 0.0054
2262.3350	 0.0054
2264.2636	 0.0054
2266.1923	 0.0053
2268.1210	 0.0053
2270.0497	 0.0053
2271.9783	 0.0053
2273.9070	 0.0052
2275.8357	 0.0052
2277.7644	 0.0052
2279.6930	 0.0052
2281.6217	 0.0052
2283.5504	 0.0052
2285.4791	 0.0052
2287.4077	 0.0051
2289.3364	 0.0051
2291.2651	 0.0050
2293.1938	 0.0050
2295.1224	 0.0049
2297.0511	 0.0049
2298.9798	 0.0049
2300.9085	 0.0049
2302.8371	 0.0048
2304.7658	 0.0047
2306.6945	 0.0047
2308.6232	 0.0046
2310.5518	 0.0045
2312.4805	 0.0044
2314.4092	 0.0044
2316.3379	 0.0043
2318.2665	 0.0042
2320.1952	 0.0041
2322.1239	 0.0040
2324.0526	 0.0039
2325.9812	 0.0038
2327.9099	 0.0037
2329.8386	 0.0036
2331.7672	 0.0036
2333.6959	 0.0036
2335.6246	 0.0036
2337.5533	 0.0035
2339.4819	 0.0034
2341.4106	 0.0034
2343.3393	 0.0034
2345.2680	 0.0035
2347.1966	 0.0038
2349.1253	 0.0039
2351.0540	 0.0037
2352.9827	 0.0034
2354.9113	 0.0032
2356.8400	 0.0030
2358.7687	 0.0029
2360.6974	 0.0029
2362.6260	 0.0030
2364.5547	 0.0030
2366.4834	 0.0031
2368.4121	 0.0033
2370.3407	 0.0035
2372.2694	 0.0037
2374.1981	 0.0038
2376.1268	 0.0040
2378.0554	 0.0042
2379.9841	 0.0043
2381.9128	 0.0045
2383.8415	 0.0046
2385.7701	 0.0047
2387.6988	 0.0047
2389.6275	 0.0047
2391.5562	 0.0047
2393.4848	 0.0047
2395.4135	 0.0047
2397.3422	 0.0047
2399.2708	 0.0047
2401.1995	 0.0047
2403.1282	 0.0047
2405.0569	 0.0047
2406.9855	 0.0047
2408.9142	 0.0047
2410.8429	 0.0047
2412.7716	 0.0047
2414.7002	 0.0047
2416.6289	 0.0047
2418.5576	 0.0048
2420.4863	 0.0048
2422.4149	 0.0048
2424.3436	 0.0048
2426.2723	 0.0048
2428.2010	 0.0048
2430.1296	 0.0048
2432.0583	 0.0048
2433.9870	 0.0048
2435.9157	 0.0048
2437.8443	 0.0048
2439.7730	 0.0048
2441.7017	 0.0049
2443.6304	 0.0049
2445.5590	 0.0049
2447.4877	 0.0049
2449.4164	 0.0049
2451.3451	 0.0049
2453.2737	 0.0049
2455.2024	 0.0049
2457.1311	 0.0049
2459.0598	 0.0049
2460.9884	 0.0050
2462.9171	 0.0050
2464.8458	 0.0050
2466.7745	 0.0050
2468.7031	 0.0050
2470.6318	 0.0050
2472.5605	 0.0050
2474.4891	 0.0051
2476.4178	 0.0051
2478.3465	 0.0051
2480.2752	 0.0050
2482.2038	 0.0051
2484.1325	 0.0051
2486.0612	 0.0051
2487.9899	 0.0051
2489.9185	 0.0051
2491.8472	 0.0051
2493.7759	 0.0052
2495.7046	 0.0052
2497.6332	 0.0052
2499.5619	 0.0052
2501.4906	 0.0052
2503.4193	 0.0052
2505.3479	 0.0053
2507.2766	 0.0053
2509.2053	 0.0052
2511.1340	 0.0053
2513.0626	 0.0053
2514.9913	 0.0053
2516.9200	 0.0053
2518.8487	 0.0053
2520.7773	 0.0053
2522.7060	 0.0053
2524.6347	 0.0053
2526.5634	 0.0053
2528.4920	 0.0053
2530.4207	 0.0053
2532.3494	 0.0054
2534.2781	 0.0054
2536.2067	 0.0054
2538.1354	 0.0054
2540.0641	 0.0054
2541.9927	 0.0054
2543.9214	 0.0054
2545.8501	 0.0054
2547.7788	 0.0054
2549.7074	 0.0055
2551.6361	 0.0055
2553.5648	 0.0055
2555.4935	 0.0055
2557.4221	 0.0055
2559.3508	 0.0055
2561.2795	 0.0055
2563.2082	 0.0055
2565.1368	 0.0056
2567.0655	 0.0056
2568.9942	 0.0055
2570.9229	 0.0056
2572.8515	 0.0056
2574.7802	 0.0056
2576.7089	 0.0057
2578.6376	 0.0057
2580.5662	 0.0057
2582.4949	 0.0057
2584.4236	 0.0057
2586.3523	 0.0057
2588.2809	 0.0057
2590.2096	 0.0058
2592.1383	 0.0058
2594.0670	 0.0058
2595.9956	 0.0058
2597.9243	 0.0058
2599.8530	 0.0058
2601.7817	 0.0059
2603.7103	 0.0059
2605.6390	 0.0059
2607.5677	 0.0059
2609.4964	 0.0059
2611.4250	 0.0060
2613.3537	 0.0060
2615.2824	 0.0061
2617.2110	 0.0061
2619.1397	 0.0061
2621.0684	 0.0062
2622.9971	 0.0062
2624.9257	 0.0062
2626.8544	 0.0062
2628.7831	 0.0063
2630.7118	 0.0063
2632.6404	 0.0064
2634.5691	 0.0064
2636.4978	 0.0064
2638.4265	 0.0065
2640.3551	 0.0065
2642.2838	 0.0066
2644.2125	 0.0066
2646.1412	 0.0067
2648.0698	 0.0067
2649.9985	 0.0068
2651.9272	 0.0068
2653.8559	 0.0069
2655.7845	 0.0069
2657.7132	 0.0069
2659.6419	 0.0070
2661.5706	 0.0070
2663.4992	 0.0071
2665.4279	 0.0071
2667.3566	 0.0071
2669.2853	 0.0072
2671.2139	 0.0072
2673.1426	 0.0073
2675.0713	 0.0073
2677.0000	 0.0074
2678.9286	 0.0074
2680.8573	 0.0075
2682.7860	 0.0075
2684.7146	 0.0076
2686.6433	 0.0076
2688.5720	 0.0077
2690.5007	 0.0077
2692.4293	 0.0078
2694.3580	 0.0078
2696.2867	 0.0079
2698.2154	 0.0079
2700.1440	 0.0080
2702.0727	 0.0080
2704.0014	 0.0081
2705.9301	 0.0082
2707.8587	 0.0082
2709.7874	 0.0083
2711.7161	 0.0083
2713.6448	 0.0084
2715.5734	 0.0085
2717.5021	 0.0085
2719.4308	 0.0085
2721.3595	 0.0086
2723.2881	 0.0086
2725.2168	 0.0087
2727.1455	 0.0088
2729.0742	 0.0088
2731.0028	 0.0089
2732.9315	 0.0089
2734.8602	 0.0089
2736.7889	 0.0090
2738.7175	 0.0090
2740.6462	 0.0091
2742.5749	 0.0091
2744.5036	 0.0091
2746.4322	 0.0092
2748.3609	 0.0092
2750.2896	 0.0093
2752.2182	 0.0093
2754.1469	 0.0094
