DATATYPE	 IR Spectrum
XYUNITS	 Wavenumber;Absorbance
DECIMALSYMBOL	 .
599.8177	 0.2755
601.7464	 0.2741
603.6751	 0.2742
605.6037	 0.2733
607.5324	 0.2714
609.4611	 0.2691
611.3898	 0.2677
613.3184	 0.2668
615.2471	 0.2654
617.1758	 0.2636
619.1045	 0.2610
621.0331	 0.2579
622.9618	 0.2547
624.8905	 0.2518
626.8192	 0.2501
628.7478	 0.2486
630.6765	 0.2467
632.6052	 0.2448
634.5339	 0.2430
636.4625	 0.2413
638.3912	 0.2396
640.3199	 0.2378
642.2485	 0.2362
644.1772	 0.2345
646.1059	 0.2327
648.0346	 0.2315
649.9632	 0.2307
651.8919	 0.2297
653.8206	 0.2290
655.7493	 0.2288
657.6779	 0.2286
659.6066	 0.2279
661.5353	 0.2267
663.4640	 0.2252
665.3926	 0.2243
667.3213	 0.2227
669.2500	 0.2186
671.1787	 0.2160
673.1073	 0.2131
675.0360	 0.2095
676.9647	 0.2062
678.8934	 0.2030
680.8220	 0.2003
682.7507	 0.1983
684.6794	 0.1967
686.6081	 0.1951
688.5367	 0.1936
690.4654	 0.1923
692.3941	 0.1911
694.3228	 0.1899
696.2514	 0.1885
698.1801	 0.1872
700.1088	 0.1860
702.0375	 0.1847
703.9661	 0.1832
705.8948	 0.1818
707.8235	 0.1804
709.7521	 0.1788
711.6808	 0.1772
713.6095	 0.1756
715.5382	 0.1739
717.4668	 0.1721
719.3955	 0.1703
721.3242	 0.1685
723.2529	 0.1667
725.1815	 0.1649
727.1102	 0.1631
729.0389	 0.1614
730.9676	 0.1598
732.8962	 0.1583
734.8249	 0.1569
736.7536	 0.1555
738.6823	 0.1543
740.6109	 0.1531
742.5396	 0.1519
744.4683	 0.1505
746.3970	 0.1491
748.3256	 0.1477
750.2543	 0.1463
752.1830	 0.1449
754.1117	 0.1437
756.0403	 0.1428
757.9690	 0.1417
759.8977	 0.1404
761.8264	 0.1393
763.7550	 0.1382
765.6837	 0.1372
767.6124	 0.1360
769.5411	 0.1348
771.4697	 0.1336
773.3984	 0.1322
775.3271	 0.1308
777.2557	 0.1295
779.1844	 0.1282
781.1131	 0.1269
783.0418	 0.1256
784.9704	 0.1244
786.8991	 0.1234
788.8278	 0.1224
790.7565	 0.1215
792.6851	 0.1206
794.6138	 0.1200
796.5425	 0.1195
798.4712	 0.1192
800.3998	 0.1189
802.3285	 0.1187
804.2572	 0.1184
806.1859	 0.1180
808.1145	 0.1174
810.0432	 0.1166
811.9719	 0.1155
813.9006	 0.1138
815.8292	 0.1117
817.7579	 0.1094
819.6866	 0.1070
821.6153	 0.1045
823.5439	 0.1023
825.4726	 0.1004
827.4013	 0.0987
829.3300	 0.0973
831.2586	 0.0959
833.1873	 0.0946
835.1160	 0.0934
837.0447	 0.0922
838.9733	 0.0911
840.9020	 0.0900
842.8307	 0.0892
844.7594	 0.0885
846.6880	 0.0881
848.6167	 0.0880
850.5454	 0.0880
852.4740	 0.0881
854.4027	 0.0882
856.3314	 0.0882
858.2601	 0.0881
860.1887	 0.0879
862.1174	 0.0877
864.0461	 0.0873
865.9748	 0.0870
867.9034	 0.0866
869.8321	 0.0860
871.7608	 0.0855
873.6895	 0.0850
875.6181	 0.0845
877.5468	 0.0839
879.4755	 0.0835
881.4042	 0.0831
883.3328	 0.0830
885.2615	 0.0831
887.1902	 0.0834
889.1189	 0.0840
891.0475	 0.0847
892.9762	 0.0854
894.9049	 0.0857
896.8336	 0.0856
898.7622	 0.0848
900.6909	 0.0834
902.6196	 0.0815
904.5483	 0.0794
906.4769	 0.0773
908.4056	 0.0752
910.3343	 0.0735
912.2630	 0.0721
914.1916	 0.0710
916.1203	 0.0702
918.0490	 0.0697
919.9776	 0.0694
921.9063	 0.0693
923.8350	 0.0693
925.7637	 0.0695
927.6923	 0.0698
929.6210	 0.0703
931.5497	 0.0708
933.4784	 0.0714
935.4070	 0.0721
937.3357	 0.0729
939.2644	 0.0739
941.1931	 0.0748
943.1217	 0.0759
945.0504	 0.0770
946.9791	 0.0783
948.9078	 0.0797
950.8364	 0.0813
952.7651	 0.0831
954.6938	 0.0852
956.6225	 0.0873
958.5511	 0.0896
960.4798	 0.0920
962.4085	 0.0943
964.3372	 0.0966
966.2658	 0.0987
968.1945	 0.1007
970.1232	 0.1029
972.0519	 0.1055
973.9805	 0.1087
975.9092	 0.1130
977.8379	 0.1184
979.7666	 0.1253
981.6952	 0.1334
983.6239	 0.1420
985.5526	 0.1503
987.4812	 0.1578
989.4099	 0.1651
991.3386	 0.1722
993.2673	 0.1788
995.1959	 0.1845
997.1246	 0.1896
999.0533	 0.1944
1000.9820	 0.1989
1002.9106	 0.2033
1004.8393	 0.2083
1006.7680	 0.2144
1008.6967	 0.2213
1010.6253	 0.2295
1012.5540	 0.2387
1014.4827	 0.2482
1016.4114	 0.2574
1018.3400	 0.2662
1020.2687	 0.2739
1022.1974	 0.2804
1024.1261	 0.2851
1026.0547	 0.2882
1027.9834	 0.2897
1029.9121	 0.2894
1031.8408	 0.2869
1033.7694	 0.2818
1035.6981	 0.2741
1037.6268	 0.2650
1039.5555	 0.2570
1041.4841	 0.2517
1043.4128	 0.2496
1045.3415	 0.2498
1047.2702	 0.2514
1049.1988	 0.2532
1051.1275	 0.2548
1053.0562	 0.2554
1054.9849	 0.2544
1056.9135	 0.2517
1058.8422	 0.2471
1060.7709	 0.2395
1062.6995	 0.2294
1064.6282	 0.2192
1066.5569	 0.2104
1068.4856	 0.2028
1070.4142	 0.1959
1072.3429	 0.1893
1074.2716	 0.1829
1076.2003	 0.1765
1078.1289	 0.1704
1080.0576	 0.1649
1081.9863	 0.1607
1083.9150	 0.1579
1085.8436	 0.1561
1087.7723	 0.1549
1089.7010	 0.1537
1091.6297	 0.1523
1093.5583	 0.1511
1095.4870	 0.1500
1097.4157	 0.1487
1099.3444	 0.1475
1101.2730	 0.1465
1103.2017	 0.1456
1105.1304	 0.1443
1107.0591	 0.1427
1108.9877	 0.1411
1110.9164	 0.1391
1112.8451	 0.1360
1114.7738	 0.1314
1116.7024	 0.1263
1118.6311	 0.1220
1120.5598	 0.1187
1122.4885	 0.1158
1124.4171	 0.1129
1126.3458	 0.1098
1128.2745	 0.1068
1130.2031	 0.1043
1132.1318	 0.1026
1134.0605	 0.1016
1135.9892	 0.1012
1137.9178	 0.1013
1139.8465	 0.1018
1141.7752	 0.1023
1143.7039	 0.1025
1145.6325	 0.1023
1147.5612	 0.1020
1149.4899	 0.1019
1151.4186	 0.1022
1153.3472	 0.1029
1155.2759	 0.1034
1157.2046	 0.1033
1159.1333	 0.1022
1161.0619	 0.0994
1162.9906	 0.0944
1164.9193	 0.0873
1166.8480	 0.0793
1168.7766	 0.0717
1170.7053	 0.0652
1172.6340	 0.0600
1174.5627	 0.0560
1176.4913	 0.0530
1178.4200	 0.0508
1180.3487	 0.0491
1182.2774	 0.0479
1184.2060	 0.0471
1186.1347	 0.0468
1188.0634	 0.0469
1189.9921	 0.0473
1191.9207	 0.0482
1193.8494	 0.0493
1195.7781	 0.0508
1197.7068	 0.0527
1199.6354	 0.0548
1201.5641	 0.0569
1203.4928	 0.0590
1205.4214	 0.0610
1207.3501	 0.0628
1209.2788	 0.0643
1211.2075	 0.0655
1213.1361	 0.0666
1215.0648	 0.0676
1216.9935	 0.0686
1218.9222	 0.0694
1220.8508	 0.0703
1222.7795	 0.0712
1224.7082	 0.0718
1226.6369	 0.0723
1228.5655	 0.0726
1230.4942	 0.0726
1232.4229	 0.0723
1234.3516	 0.0719
1236.2802	 0.0714
1238.2089	 0.0711
1240.1376	 0.0711
1242.0663	 0.0716
1243.9949	 0.0725
1245.9236	 0.0735
1247.8523	 0.0748
1249.7810	 0.0762
1251.7096	 0.0778
1253.6383	 0.0795
1255.5670	 0.0815
1257.4957	 0.0834
1259.4243	 0.0852
1261.3530	 0.0865
1263.2817	 0.0873
1265.2104	 0.0874
1267.1390	 0.0868
1269.0677	 0.0854
1270.9964	 0.0832
1272.9250	 0.0805
1274.8537	 0.0774
1276.7824	 0.0741
1278.7111	 0.0709
1280.6397	 0.0679
1282.5684	 0.0650
1284.4971	 0.0622
1286.4258	 0.0598
1288.3544	 0.0579
1290.2831	 0.0565
1292.2118	 0.0556
1294.1405	 0.0549
1296.0691	 0.0546
1297.9978	 0.0547
1299.9265	 0.0551
1301.8552	 0.0557
1303.7838	 0.0564
1305.7125	 0.0572
1307.6412	 0.0582
1309.5699	 0.0594
1311.4985	 0.0605
1313.4272	 0.0616
1315.3559	 0.0623
1317.2846	 0.0626
1319.2132	 0.0622
1321.1419	 0.0615
1323.0706	 0.0606
1324.9993	 0.0599
1326.9279	 0.0594
1328.8566	 0.0592
1330.7853	 0.0592
1332.7140	 0.0591
1334.6426	 0.0589
1336.5713	 0.0584
1338.5000	 0.0577
1340.4286	 0.0569
1342.3573	 0.0561
1344.2860	 0.0554
1346.2147	 0.0548
1348.1433	 0.0546
1350.0720	 0.0547
1352.0007	 0.0552
1353.9294	 0.0558
1355.8580	 0.0566
1357.7867	 0.0575
1359.7154	 0.0585
1361.6441	 0.0595
1363.5727	 0.0606
1365.5014	 0.0616
1367.4301	 0.0624
1369.3588	 0.0631
1371.2874	 0.0634
1373.2161	 0.0630
1375.1448	 0.0620
1377.0735	 0.0607
1379.0021	 0.0590
1380.9308	 0.0570
1382.8595	 0.0548
1384.7882	 0.0528
1386.7168	 0.0508
1388.6455	 0.0490
1390.5742	 0.0479
1392.5029	 0.0471
1394.4315	 0.0466
1396.3602	 0.0464
1398.2889	 0.0465
1400.2176	 0.0468
1402.1462	 0.0473
1404.0749	 0.0480
1406.0036	 0.0490
1407.9323	 0.0501
1409.8609	 0.0515
1411.7896	 0.0530
1413.7183	 0.0547
1415.6469	 0.0564
1417.5756	 0.0580
1419.5043	 0.0596
1421.4330	 0.0606
1423.3616	 0.0608
1425.2903	 0.0603
1427.2190	 0.0594
1429.1477	 0.0580
1431.0763	 0.0560
1433.0050	 0.0540
1434.9337	 0.0523
1436.8624	 0.0501
1438.7910	 0.0486
1440.7197	 0.0479
1442.6484	 0.0480
1444.5771	 0.0487
1446.5057	 0.0501
1448.4344	 0.0517
1450.3631	 0.0529
1452.2918	 0.0535
1454.2204	 0.0535
1456.1491	 0.0530
1458.0778	 0.0521
1460.0065	 0.0518
1461.9351	 0.0518
1463.8638	 0.0515
1465.7925	 0.0503
1467.7212	 0.0484
1469.6498	 0.0461
1471.5785	 0.0431
1473.5072	 0.0395
1475.4359	 0.0370
1477.3645	 0.0351
1479.2932	 0.0338
1481.2219	 0.0328
1483.1505	 0.0321
1485.0792	 0.0317
1487.0079	 0.0316
1488.9366	 0.0319
1490.8652	 0.0325
1492.7939	 0.0335
1494.7226	 0.0348
1496.6513	 0.0368
1498.5799	 0.0395
1500.5086	 0.0424
1502.4373	 0.0454
1504.3660	 0.0482
1506.2946	 0.0515
1508.2233	 0.0541
1510.1520	 0.0543
1512.0807	 0.0528
1514.0093	 0.0500
1515.9380	 0.0460
1517.8667	 0.0406
1519.7954	 0.0365
1521.7240	 0.0317
1523.6527	 0.0283
1525.5814	 0.0264
1527.5101	 0.0245
1529.4387	 0.0233
1531.3674	 0.0224
1533.2961	 0.0217
1535.2248	 0.0210
1537.1534	 0.0208
1539.0821	 0.0207
1541.0108	 0.0206
1542.9395	 0.0206
1544.8681	 0.0207
1546.7968	 0.0208
1548.7255	 0.0210
1550.6542	 0.0212
1552.5828	 0.0214
1554.5115	 0.0217
1556.4402	 0.0220
1558.3688	 0.0224
1560.2975	 0.0229
1562.2262	 0.0232
1564.1549	 0.0237
1566.0835	 0.0244
1568.0122	 0.0251
1569.9409	 0.0263
1571.8696	 0.0275
1573.7982	 0.0286
1575.7269	 0.0302
1577.6556	 0.0324
1579.5843	 0.0341
1581.5129	 0.0359
1583.4416	 0.0377
1585.3703	 0.0395
1587.2990	 0.0412
1589.2276	 0.0428
1591.1563	 0.0441
1593.0850	 0.0452
1595.0137	 0.0460
1596.9423	 0.0465
1598.8710	 0.0472
1600.7997	 0.0480
1602.7284	 0.0489
1604.6570	 0.0497
1606.5857	 0.0505
1608.5144	 0.0511
1610.4431	 0.0516
1612.3717	 0.0523
1614.3004	 0.0530
1616.2291	 0.0541
1618.1578	 0.0554
1620.0864	 0.0565
1622.0151	 0.0577
1623.9438	 0.0589
1625.8724	 0.0600
1627.8011	 0.0609
1629.7298	 0.0618
1631.6585	 0.0626
1633.5871	 0.0632
1635.5158	 0.0635
1637.4445	 0.0637
1639.3732	 0.0638
1641.3018	 0.0636
1643.2305	 0.0634
1645.1592	 0.0632
1647.0879	 0.0626
1649.0165	 0.0620
1650.9452	 0.0618
1652.8739	 0.0611
1654.8026	 0.0596
1656.7312	 0.0589
1658.6599	 0.0578
1660.5886	 0.0564
1662.5173	 0.0546
1664.4459	 0.0524
1666.3746	 0.0507
1668.3033	 0.0487
1670.2320	 0.0462
1672.1606	 0.0443
1674.0893	 0.0426
1676.0180	 0.0403
1677.9467	 0.0386
1679.8753	 0.0371
1681.8040	 0.0357
1683.7327	 0.0341
1685.6614	 0.0320
1687.5900	 0.0309
1689.5187	 0.0297
1691.4474	 0.0284
1693.3760	 0.0275
1695.3047	 0.0263
1697.2334	 0.0252
1699.1621	 0.0245
1701.0907	 0.0234
1703.0194	 0.0228
1704.9481	 0.0223
1706.8768	 0.0218
1708.8054	 0.0215
1710.7341	 0.0212
1712.6628	 0.0211
1714.5915	 0.0211
1716.5201	 0.0211
1718.4488	 0.0210
1720.3775	 0.0210
1722.3062	 0.0210
1724.2348	 0.0209
1726.1635	 0.0208
1728.0922	 0.0207
1730.0209	 0.0204
1731.9495	 0.0202
1733.8782	 0.0198
1735.8069	 0.0193
1737.7356	 0.0189
1739.6642	 0.0184
1741.5929	 0.0177
1743.5216	 0.0170
1745.4503	 0.0163
1747.3789	 0.0155
1749.3076	 0.0147
1751.2363	 0.0137
1753.1650	 0.0127
1755.0936	 0.0120
1757.0223	 0.0112
1758.9510	 0.0104
1760.8797	 0.0098
1762.8083	 0.0091
1764.7370	 0.0086
1766.6657	 0.0081
1768.5943	 0.0077
1770.5230	 0.0074
1772.4517	 0.0071
1774.3804	 0.0068
1776.3090	 0.0066
1778.2377	 0.0064
1780.1664	 0.0062
1782.0951	 0.0060
1784.0237	 0.0058
1785.9524	 0.0057
1787.8811	 0.0056
1789.8098	 0.0055
1791.7384	 0.0054
1793.6671	 0.0053
1795.5958	 0.0051
1797.5245	 0.0050
1799.4531	 0.0050
1801.3818	 0.0049
1803.3105	 0.0048
1805.2392	 0.0047
1807.1678	 0.0047
1809.0965	 0.0046
1811.0252	 0.0045
1812.9539	 0.0045
1814.8825	 0.0044
1816.8112	 0.0044
1818.7399	 0.0043
1820.6686	 0.0043
1822.5972	 0.0042
1824.5259	 0.0042
1826.4546	 0.0041
1828.3833	 0.0041
1830.3119	 0.0041
1832.2406	 0.0040
1834.1693	 0.0039
1836.0979	 0.0039
1838.0266	 0.0039
1839.9553	 0.0039
1841.8840	 0.0039
1843.8126	 0.0038
1845.7413	 0.0038
1847.6700	 0.0038
1849.5987	 0.0038
1851.5273	 0.0037
1853.4560	 0.0037
1855.3847	 0.0037
1857.3134	 0.0037
1859.2420	 0.0036
1861.1707	 0.0036
1863.0994	 0.0036
1865.0281	 0.0036
1866.9567	 0.0036
1868.8854	 0.0036
1870.8141	 0.0036
1872.7428	 0.0035
1874.6714	 0.0035
1876.6001	 0.0035
1878.5288	 0.0035
1880.4575	 0.0035
1882.3861	 0.0035
1884.3148	 0.0035
1886.2435	 0.0035
1888.1722	 0.0035
1890.1008	 0.0035
1892.0295	 0.0035
1893.9582	 0.0035
1895.8869	 0.0034
1897.8155	 0.0034
1899.7442	 0.0034
1901.6729	 0.0034
1903.6016	 0.0034
1905.5302	 0.0035
1907.4589	 0.0034
1909.3876	 0.0034
1911.3162	 0.0034
1913.2449	 0.0035
1915.1736	 0.0035
1917.1023	 0.0035
1919.0309	 0.0035
1920.9596	 0.0035
1922.8883	 0.0035
1924.8170	 0.0035
1926.7456	 0.0035
1928.6743	 0.0035
1930.6030	 0.0035
1932.5317	 0.0035
1934.4603	 0.0036
1936.3890	 0.0036
1938.3177	 0.0036
1940.2464	 0.0036
1942.1750	 0.0037
1944.1037	 0.0037
1946.0324	 0.0037
1947.9611	 0.0037
1949.8897	 0.0037
1951.8184	 0.0038
1953.7471	 0.0038
1955.6758	 0.0038
1957.6044	 0.0039
1959.5331	 0.0039
1961.4618	 0.0039
1963.3905	 0.0040
1965.3191	 0.0040
1967.2478	 0.0040
1969.1765	 0.0040
1971.1052	 0.0041
1973.0338	 0.0041
1974.9625	 0.0041
1976.8912	 0.0041
1978.8198	 0.0042
1980.7485	 0.0042
1982.6772	 0.0043
1984.6059	 0.0043
1986.5345	 0.0043
1988.4632	 0.0043
1990.3919	 0.0044
1992.3206	 0.0044
1994.2492	 0.0044
1996.1779	 0.0045
1998.1066	 0.0045
2000.0353	 0.0045
2001.9639	 0.0046
2003.8926	 0.0046
2005.8213	 0.0046
2007.7500	 0.0046
2009.6786	 0.0047
2011.6073	 0.0048
2013.5360	 0.0048
2015.4647	 0.0049
2017.3933	 0.0049
2019.3220	 0.0049
2021.2507	 0.0050
2023.1794	 0.0050
2025.1080	 0.0051
2027.0367	 0.0051
2028.9654	 0.0052
2030.8941	 0.0052
2032.8227	 0.0052
2034.7514	 0.0053
2036.6801	 0.0053
2038.6088	 0.0054
2040.5374	 0.0054
2042.4661	 0.0055
2044.3948	 0.0055
2046.3234	 0.0055
2048.2521	 0.0055
2050.1808	 0.0056
2052.1095	 0.0056
2054.0381	 0.0056
2055.9668	 0.0056
2057.8955	 0.0057
2059.8242	 0.0057
2061.7528	 0.0057
2063.6815	 0.0057
2065.6102	 0.0057
2067.5389	 0.0057
2069.4675	 0.0057
2071.3962	 0.0058
2073.3249	 0.0058
2075.2536	 0.0058
2077.1822	 0.0057
2079.1109	 0.0058
2081.0396	 0.0058
2082.9683	 0.0058
2084.8969	 0.0058
2086.8256	 0.0058
2088.7543	 0.0058
2090.6830	 0.0058
2092.6116	 0.0058
2094.5403	 0.0058
2096.4690	 0.0059
2098.3977	 0.0059
2100.3263	 0.0059
2102.2550	 0.0059
2104.1837	 0.0059
2106.1124	 0.0059
2108.0410	 0.0059
2109.9697	 0.0059
2111.8984	 0.0059
2113.8271	 0.0059
2115.7557	 0.0059
2117.6844	 0.0059
2119.6131	 0.0059
2121.5417	 0.0059
2123.4704	 0.0059
2125.3991	 0.0059
2127.3278	 0.0059
2129.2564	 0.0059
2131.1851	 0.0059
2133.1138	 0.0059
2135.0425	 0.0059
2136.9711	 0.0059
2138.8998	 0.0058
2140.8285	 0.0058
2142.7572	 0.0058
2144.6858	 0.0058
2146.6145	 0.0058
2148.5432	 0.0057
2150.4719	 0.0057
2152.4005	 0.0057
2154.3292	 0.0057
2156.2579	 0.0056
2158.1866	 0.0056
2160.1152	 0.0055
2162.0439	 0.0055
2163.9726	 0.0055
2165.9013	 0.0054
2167.8299	 0.0054
2169.7586	 0.0054
2171.6873	 0.0053
2173.6160	 0.0053
2175.5446	 0.0052
2177.4733	 0.0051
2179.4020	 0.0051
2181.3307	 0.0050
2183.2593	 0.0050
2185.1880	 0.0050
2187.1167	 0.0049
2189.0453	 0.0049
2190.9740	 0.0049
2192.9027	 0.0048
2194.8314	 0.0048
2196.7600	 0.0047
2198.6887	 0.0047
2200.6174	 0.0046
2202.5461	 0.0046
2204.4747	 0.0045
2206.4034	 0.0045
2208.3321	 0.0045
2210.2608	 0.0044
2212.1894	 0.0044
2214.1181	 0.0043
2216.0468	 0.0043
2217.9755	 0.0042
2219.9041	 0.0042
2221.8328	 0.0042
2223.7615	 0.0042
2225.6902	 0.0041
2227.6188	 0.0041
2229.5475	 0.0040
2231.4762	 0.0040
2233.4049	 0.0039
2235.3335	 0.0039
2237.2622	 0.0039
2239.1909	 0.0038
2241.1196	 0.0038
2243.0482	 0.0038
2244.9769	 0.0037
2246.9056	 0.0037
2248.8343	 0.0037
2250.7629	 0.0036
2252.6916	 0.0036
2254.6203	 0.0035
2256.5490	 0.0035
2258.4776	 0.0035
2260.4063	 0.0035
2262.3350	 0.0034
2264.2636	 0.0034
2266.1923	 0.0034
2268.1210	 0.0033
2270.0497	 0.0033
2271.9783	 0.0033
2273.9070	 0.0032
2275.8357	 0.0031
2277.7644	 0.0031
2279.6930	 0.0031
2281.6217	 0.0030
2283.5504	 0.0030
2285.4791	 0.0030
2287.4077	 0.0030
2289.3364	 0.0030
2291.2651	 0.0030
2293.1938	 0.0030
2295.1224	 0.0030
2297.0511	 0.0029
2298.9798	 0.0029
2300.9085	 0.0029
2302.8371	 0.0029
2304.7658	 0.0029
2306.6945	 0.0029
2308.6232	 0.0030
2310.5518	 0.0030
2312.4805	 0.0030
2314.4092	 0.0030
2316.3379	 0.0030
2318.2665	 0.0030
2320.1952	 0.0031
2322.1239	 0.0031
2324.0526	 0.0031
2325.9812	 0.0031
2327.9099	 0.0031
2329.8386	 0.0032
2331.7672	 0.0032
2333.6959	 0.0032
2335.6246	 0.0032
2337.5533	 0.0032
2339.4819	 0.0032
2341.4106	 0.0032
2343.3393	 0.0032
2345.2680	 0.0031
2347.1966	 0.0029
2349.1253	 0.0028
2351.0540	 0.0029
2352.9827	 0.0031
2354.9113	 0.0032
2356.8400	 0.0033
2358.7687	 0.0033
2360.6974	 0.0033
2362.6260	 0.0032
2364.5547	 0.0032
2366.4834	 0.0031
2368.4121	 0.0030
2370.3407	 0.0029
2372.2694	 0.0028
2374.1981	 0.0027
2376.1268	 0.0025
2378.0554	 0.0024
2379.9841	 0.0023
2381.9128	 0.0021
2383.8415	 0.0020
2385.7701	 0.0020
2387.6988	 0.0020
2389.6275	 0.0020
2391.5562	 0.0020
2393.4848	 0.0020
2395.4135	 0.0019
2397.3422	 0.0019
2399.2708	 0.0019
2401.1995	 0.0020
2403.1282	 0.0019
2405.0569	 0.0019
2406.9855	 0.0019
2408.9142	 0.0019
2410.8429	 0.0019
2412.7716	 0.0019
2414.7002	 0.0020
2416.6289	 0.0020
2418.5576	 0.0020
2420.4863	 0.0020
2422.4149	 0.0019
2424.3436	 0.0019
2426.2723	 0.0019
2428.2010	 0.0020
2430.1296	 0.0020
2432.0583	 0.0020
2433.9870	 0.0020
2435.9157	 0.0020
2437.8443	 0.0020
2439.7730	 0.0020
2441.7017	 0.0020
2443.6304	 0.0020
2445.5590	 0.0020
2447.4877	 0.0020
2449.4164	 0.0020
2451.3451	 0.0020
2453.2737	 0.0020
2455.2024	 0.0020
2457.1311	 0.0020
2459.0598	 0.0020
2460.9884	 0.0020
2462.9171	 0.0021
2464.8458	 0.0021
2466.7745	 0.0021
2468.7031	 0.0021
2470.6318	 0.0021
2472.5605	 0.0021
2474.4891	 0.0021
2476.4178	 0.0021
2478.3465	 0.0021
2480.2752	 0.0021
2482.2038	 0.0021
2484.1325	 0.0021
2486.0612	 0.0022
2487.9899	 0.0021
2489.9185	 0.0022
2491.8472	 0.0022
2493.7759	 0.0022
2495.7046	 0.0022
2497.6332	 0.0022
2499.5619	 0.0022
2501.4906	 0.0022
2503.4193	 0.0022
2505.3479	 0.0023
2507.2766	 0.0023
2509.2053	 0.0023
2511.1340	 0.0023
2513.0626	 0.0023
2514.9913	 0.0024
2516.9200	 0.0024
2518.8487	 0.0023
2520.7773	 0.0024
2522.7060	 0.0024
2524.6347	 0.0024
2526.5634	 0.0023
2528.4920	 0.0024
2530.4207	 0.0024
2532.3494	 0.0024
2534.2781	 0.0024
2536.2067	 0.0024
2538.1354	 0.0024
2540.0641	 0.0024
2541.9927	 0.0024
2543.9214	 0.0024
2545.8501	 0.0024
2547.7788	 0.0024
2549.7074	 0.0024
2551.6361	 0.0024
2553.5648	 0.0024
2555.4935	 0.0024
2557.4221	 0.0025
2559.3508	 0.0025
2561.2795	 0.0025
2563.2082	 0.0025
2565.1368	 0.0025
2567.0655	 0.0025
2568.9942	 0.0025
2570.9229	 0.0025
2572.8515	 0.0025
2574.7802	 0.0025
2576.7089	 0.0026
2578.6376	 0.0026
2580.5662	 0.0026
2582.4949	 0.0026
2584.4236	 0.0026
2586.3523	 0.0026
2588.2809	 0.0026
2590.2096	 0.0026
2592.1383	 0.0027
2594.0670	 0.0027
2595.9956	 0.0027
2597.9243	 0.0027
2599.8530	 0.0028
2601.7817	 0.0028
2603.7103	 0.0028
2605.6390	 0.0028
2607.5677	 0.0028
2609.4964	 0.0029
2611.4250	 0.0029
2613.3537	 0.0029
2615.2824	 0.0029
2617.2110	 0.0030
2619.1397	 0.0030
2621.0684	 0.0030
2622.9971	 0.0030
2624.9257	 0.0030
2626.8544	 0.0031
2628.7831	 0.0031
2630.7118	 0.0032
2632.6404	 0.0032
2634.5691	 0.0032
2636.4978	 0.0033
2638.4265	 0.0033
2640.3551	 0.0034
2642.2838	 0.0034
2644.2125	 0.0035
2646.1412	 0.0035
2648.0698	 0.0036
2649.9985	 0.0036
2651.9272	 0.0037
2653.8559	 0.0037
2655.7845	 0.0037
2657.7132	 0.0038
2659.6419	 0.0038
2661.5706	 0.0038
2663.4992	 0.0039
2665.4279	 0.0039
2667.3566	 0.0040
2669.2853	 0.0040
2671.2139	 0.0040
2673.1426	 0.0041
2675.0713	 0.0042
2677.0000	 0.0042
2678.9286	 0.0043
2680.8573	 0.0043
2682.7860	 0.0044
2684.7146	 0.0044
2686.6433	 0.0045
2688.5720	 0.0046
2690.5007	 0.0046
2692.4293	 0.0047
2694.3580	 0.0047
2696.2867	 0.0048
2698.2154	 0.0048
2700.1440	 0.0049
2702.0727	 0.0050
2704.0014	 0.0050
2705.9301	 0.0051
2707.8587	 0.0051
2709.7874	 0.0052
2711.7161	 0.0053
2713.6448	 0.0053
2715.5734	 0.0054
2717.5021	 0.0054
2719.4308	 0.0055
2721.3595	 0.0056
2723.2881	 0.0056
2725.2168	 0.0057
2727.1455	 0.0057
2729.0742	 0.0058
2731.0028	 0.0058
2732.9315	 0.0059
2734.8602	 0.0059
2736.7889	 0.0060
2738.7175	 0.0060
2740.6462	 0.0061
2742.5749	 0.0061
2744.5036	 0.0061
2746.4322	 0.0062
2748.3609	 0.0062
2750.2896	 0.0063
2752.2182	 0.0063
2754.1469	 0.0064
