DATATYPE	 IR Spectrum
XYUNITS	 Wavenumber;Absorbance
DECIMALSYMBOL	 .
599.8177	 0.0842
601.7464	 0.0836
603.6751	 0.0836
605.6037	 0.0834
607.5324	 0.0827
609.4611	 0.0820
611.3898	 0.0807
613.3184	 0.0803
615.2471	 0.0808
617.1758	 0.0797
619.1045	 0.0785
621.0331	 0.0782
622.9618	 0.0772
624.8905	 0.0761
626.8192	 0.0757
628.7478	 0.0753
630.6765	 0.0746
632.6052	 0.0739
634.5339	 0.0737
636.4625	 0.0732
638.3912	 0.0723
640.3199	 0.0720
642.2485	 0.0718
644.1772	 0.0714
646.1059	 0.0713
648.0346	 0.0710
649.9632	 0.0706
651.8919	 0.0701
653.8206	 0.0698
655.7493	 0.0697
657.6779	 0.0695
659.6066	 0.0693
661.5353	 0.0688
663.4640	 0.0680
665.3926	 0.0681
667.3213	 0.0709
669.2500	 0.0703
671.1787	 0.0663
673.1073	 0.0641
675.0360	 0.0628
676.9647	 0.0615
678.8934	 0.0604
680.8220	 0.0594
682.7507	 0.0584
684.6794	 0.0576
686.6081	 0.0570
688.5367	 0.0565
690.4654	 0.0560
692.3941	 0.0552
694.3228	 0.0545
696.2514	 0.0539
698.1801	 0.0533
700.1088	 0.0528
702.0375	 0.0523
703.9661	 0.0519
705.8948	 0.0514
707.8235	 0.0510
709.7521	 0.0506
711.6808	 0.0502
713.6095	 0.0497
715.5382	 0.0493
717.4668	 0.0491
719.3955	 0.0490
721.3242	 0.0486
723.2529	 0.0479
725.1815	 0.0475
727.1102	 0.0472
729.0389	 0.0468
730.9676	 0.0465
732.8962	 0.0462
734.8249	 0.0459
736.7536	 0.0456
738.6823	 0.0454
740.6109	 0.0451
742.5396	 0.0449
744.4683	 0.0446
746.3970	 0.0442
748.3256	 0.0438
750.2543	 0.0434
752.1830	 0.0432
754.1117	 0.0430
756.0403	 0.0428
757.9690	 0.0426
759.8977	 0.0424
761.8264	 0.0422
763.7550	 0.0420
765.6837	 0.0417
767.6124	 0.0415
769.5411	 0.0413
771.4697	 0.0411
773.3984	 0.0408
775.3271	 0.0406
777.2557	 0.0404
779.1844	 0.0404
781.1131	 0.0402
783.0418	 0.0400
784.9704	 0.0397
786.8991	 0.0395
788.8278	 0.0393
790.7565	 0.0393
792.6851	 0.0393
794.6138	 0.0394
796.5425	 0.0396
798.4712	 0.0397
800.3998	 0.0399
802.3285	 0.0400
804.2572	 0.0401
806.1859	 0.0402
808.1145	 0.0401
810.0432	 0.0398
811.9719	 0.0395
813.9006	 0.0390
815.8292	 0.0384
817.7579	 0.0377
819.6866	 0.0370
821.6153	 0.0364
823.5439	 0.0358
825.4726	 0.0354
827.4013	 0.0350
829.3300	 0.0346
831.2586	 0.0343
833.1873	 0.0341
835.1160	 0.0338
837.0447	 0.0336
838.9733	 0.0334
840.9020	 0.0333
842.8307	 0.0332
844.7594	 0.0333
846.6880	 0.0335
848.6167	 0.0338
850.5454	 0.0342
852.4740	 0.0346
854.4027	 0.0349
856.3314	 0.0352
858.2601	 0.0355
860.1887	 0.0357
862.1174	 0.0359
864.0461	 0.0361
865.9748	 0.0363
867.9034	 0.0365
869.8321	 0.0365
871.7608	 0.0366
873.6895	 0.0367
875.6181	 0.0369
877.5468	 0.0371
879.4755	 0.0372
881.4042	 0.0375
883.3328	 0.0379
885.2615	 0.0383
887.1902	 0.0388
889.1189	 0.0394
891.0475	 0.0399
892.9762	 0.0404
894.9049	 0.0406
896.8336	 0.0407
898.7622	 0.0405
900.6909	 0.0400
902.6196	 0.0393
904.5483	 0.0385
906.4769	 0.0377
908.4056	 0.0370
910.3343	 0.0364
912.2630	 0.0360
914.1916	 0.0357
916.1203	 0.0357
918.0490	 0.0357
919.9776	 0.0359
921.9063	 0.0362
923.8350	 0.0365
925.7637	 0.0370
927.6923	 0.0375
929.6210	 0.0380
931.5497	 0.0386
933.4784	 0.0391
935.4070	 0.0397
937.3357	 0.0404
939.2644	 0.0410
941.1931	 0.0418
943.1217	 0.0426
945.0504	 0.0434
946.9791	 0.0443
948.9078	 0.0452
950.8364	 0.0462
952.7651	 0.0472
954.6938	 0.0483
956.6225	 0.0495
958.5511	 0.0506
960.4798	 0.0517
962.4085	 0.0528
964.3372	 0.0539
966.2658	 0.0550
968.1945	 0.0562
970.1232	 0.0575
972.0519	 0.0589
973.9805	 0.0606
975.9092	 0.0628
977.8379	 0.0654
979.7666	 0.0684
981.6952	 0.0719
983.6239	 0.0758
985.5526	 0.0799
987.4812	 0.0838
989.4099	 0.0875
991.3386	 0.0906
993.2673	 0.0931
995.1959	 0.0950
997.1246	 0.0965
999.0533	 0.0980
1000.9820	 0.0996
1002.9106	 0.1015
1004.8393	 0.1039
1006.7680	 0.1066
1008.6967	 0.1098
1010.6253	 0.1134
1012.5540	 0.1171
1014.4827	 0.1207
1016.4114	 0.1238
1018.3400	 0.1262
1020.2687	 0.1279
1022.1974	 0.1289
1024.1261	 0.1292
1026.0547	 0.1288
1027.9834	 0.1279
1029.9121	 0.1266
1031.8408	 0.1248
1033.7694	 0.1228
1035.6981	 0.1205
1037.6268	 0.1183
1039.5555	 0.1163
1041.4841	 0.1146
1043.4128	 0.1135
1045.3415	 0.1127
1047.2702	 0.1120
1049.1988	 0.1114
1051.1275	 0.1107
1053.0562	 0.1099
1054.9849	 0.1089
1056.9135	 0.1079
1058.8422	 0.1065
1060.7709	 0.1049
1062.6995	 0.1031
1064.6282	 0.1011
1066.5569	 0.0990
1068.4856	 0.0969
1070.4142	 0.0946
1072.3429	 0.0922
1074.2716	 0.0897
1076.2003	 0.0872
1078.1289	 0.0848
1080.0576	 0.0827
1081.9863	 0.0809
1083.9150	 0.0794
1085.8436	 0.0780
1087.7723	 0.0768
1089.7010	 0.0755
1091.6297	 0.0741
1093.5583	 0.0727
1095.4870	 0.0712
1097.4157	 0.0698
1099.3444	 0.0683
1101.2730	 0.0669
1103.2017	 0.0656
1105.1304	 0.0644
1107.0591	 0.0633
1108.9877	 0.0622
1110.9164	 0.0611
1112.8451	 0.0600
1114.7738	 0.0589
1116.7024	 0.0578
1118.6311	 0.0567
1120.5598	 0.0557
1122.4885	 0.0547
1124.4171	 0.0536
1126.3458	 0.0525
1128.2745	 0.0514
1130.2031	 0.0503
1132.1318	 0.0494
1134.0605	 0.0485
1135.9892	 0.0480
1137.9178	 0.0476
1139.8465	 0.0472
1141.7752	 0.0470
1143.7039	 0.0468
1145.6325	 0.0467
1147.5612	 0.0466
1149.4899	 0.0467
1151.4186	 0.0469
1153.3472	 0.0469
1155.2759	 0.0467
1157.2046	 0.0460
1159.1333	 0.0448
1161.0619	 0.0432
1162.9906	 0.0410
1164.9193	 0.0386
1166.8480	 0.0362
1168.7766	 0.0337
1170.7053	 0.0316
1172.6340	 0.0298
1174.5627	 0.0284
1176.4913	 0.0272
1178.4200	 0.0262
1180.3487	 0.0255
1182.2774	 0.0251
1184.2060	 0.0248
1186.1347	 0.0248
1188.0634	 0.0250
1189.9921	 0.0253
1191.9207	 0.0258
1193.8494	 0.0264
1195.7781	 0.0271
1197.7068	 0.0279
1199.6354	 0.0288
1201.5641	 0.0297
1203.4928	 0.0305
1205.4214	 0.0313
1207.3501	 0.0321
1209.2788	 0.0327
1211.2075	 0.0333
1213.1361	 0.0338
1215.0648	 0.0342
1216.9935	 0.0345
1218.9222	 0.0349
1220.8508	 0.0352
1222.7795	 0.0356
1224.7082	 0.0359
1226.6369	 0.0361
1228.5655	 0.0363
1230.4942	 0.0363
1232.4229	 0.0363
1234.3516	 0.0362
1236.2802	 0.0362
1238.2089	 0.0361
1240.1376	 0.0361
1242.0663	 0.0361
1243.9949	 0.0363
1245.9236	 0.0365
1247.8523	 0.0369
1249.7810	 0.0374
1251.7096	 0.0380
1253.6383	 0.0386
1255.5670	 0.0393
1257.4957	 0.0400
1259.4243	 0.0407
1261.3530	 0.0412
1263.2817	 0.0413
1265.2104	 0.0414
1267.1390	 0.0412
1269.0677	 0.0406
1270.9964	 0.0397
1272.9250	 0.0385
1274.8537	 0.0370
1276.7824	 0.0355
1278.7111	 0.0341
1280.6397	 0.0327
1282.5684	 0.0314
1284.4971	 0.0303
1286.4258	 0.0294
1288.3544	 0.0287
1290.2831	 0.0280
1292.2118	 0.0276
1294.1405	 0.0273
1296.0691	 0.0272
1297.9978	 0.0271
1299.9265	 0.0270
1301.8552	 0.0271
1303.7838	 0.0272
1305.7125	 0.0274
1307.6412	 0.0276
1309.5699	 0.0278
1311.4985	 0.0282
1313.4272	 0.0286
1315.3559	 0.0288
1317.2846	 0.0291
1319.2132	 0.0291
1321.1419	 0.0287
1323.0706	 0.0283
1324.9993	 0.0281
1326.9279	 0.0280
1328.8566	 0.0280
1330.7853	 0.0279
1332.7140	 0.0278
1334.6426	 0.0279
1336.5713	 0.0284
1338.5000	 0.0292
1340.4286	 0.0288
1342.3573	 0.0277
1344.2860	 0.0272
1346.2147	 0.0272
1348.1433	 0.0273
1350.0720	 0.0275
1352.0007	 0.0276
1353.9294	 0.0279
1355.8580	 0.0283
1357.7867	 0.0286
1359.7154	 0.0294
1361.6441	 0.0307
1363.5727	 0.0309
1365.5014	 0.0303
1367.4301	 0.0304
1369.3588	 0.0306
1371.2874	 0.0307
1373.2161	 0.0314
1375.1448	 0.0311
1377.0735	 0.0299
1379.0021	 0.0290
1380.9308	 0.0282
1382.8595	 0.0273
1384.7882	 0.0271
1386.7168	 0.0273
1388.6455	 0.0264
1390.5742	 0.0253
1392.5029	 0.0255
1394.4315	 0.0265
1396.3602	 0.0267
1398.2889	 0.0264
1400.2176	 0.0256
1402.1462	 0.0252
1404.0749	 0.0258
1406.0036	 0.0261
1407.9323	 0.0259
1409.8609	 0.0265
1411.7896	 0.0270
1413.7183	 0.0275
1415.6469	 0.0286
1417.5756	 0.0305
1419.5043	 0.0307
1421.4330	 0.0295
1423.3616	 0.0293
1425.2903	 0.0284
1427.2190	 0.0276
1429.1477	 0.0276
1431.0763	 0.0270
1433.0050	 0.0260
1434.9337	 0.0262
1436.8624	 0.0260
1438.7910	 0.0243
1440.7197	 0.0234
1442.6484	 0.0235
1444.5771	 0.0240
1446.5057	 0.0252
1448.4344	 0.0261
1450.3631	 0.0259
1452.2918	 0.0261
1454.2204	 0.0271
1456.1491	 0.0293
1458.0778	 0.0293
1460.0065	 0.0262
1461.9351	 0.0249
1463.8638	 0.0253
1465.7925	 0.0247
1467.7212	 0.0229
1469.6498	 0.0225
1471.5785	 0.0235
1473.5072	 0.0229
1475.4359	 0.0206
1477.3645	 0.0185
1479.2932	 0.0173
1481.2219	 0.0170
1483.1505	 0.0165
1485.0792	 0.0168
1487.0079	 0.0184
1488.9366	 0.0202
1490.8652	 0.0194
1492.7939	 0.0180
1494.7226	 0.0188
1496.6513	 0.0212
1498.5799	 0.0221
1500.5086	 0.0224
1502.4373	 0.0233
1504.3660	 0.0257
1506.2946	 0.0315
1508.2233	 0.0320
1510.1520	 0.0286
1512.0807	 0.0264
1514.0093	 0.0255
1515.9380	 0.0255
1517.8667	 0.0235
1519.7954	 0.0223
1521.7240	 0.0211
1523.6527	 0.0182
1525.5814	 0.0167
1527.5101	 0.0151
1529.4387	 0.0133
1531.3674	 0.0133
1533.2961	 0.0142
1535.2248	 0.0130
1537.1534	 0.0130
1539.0821	 0.0164
1541.0108	 0.0178
1542.9395	 0.0158
1544.8681	 0.0137
1546.7968	 0.0118
1548.7255	 0.0118
1550.6542	 0.0122
1552.5828	 0.0122
1554.5115	 0.0131
1556.4402	 0.0147
1558.3688	 0.0183
1560.2975	 0.0155
1562.2262	 0.0126
1564.1549	 0.0123
1566.0835	 0.0125
1568.0122	 0.0134
1569.9409	 0.0143
1571.8696	 0.0133
1573.7982	 0.0138
1575.7269	 0.0160
1577.6556	 0.0159
1579.5843	 0.0149
1581.5129	 0.0150
1583.4416	 0.0155
1585.3703	 0.0160
1587.2990	 0.0165
1589.2276	 0.0170
1591.1563	 0.0174
1593.0850	 0.0177
1595.0137	 0.0180
1596.9423	 0.0179
1598.8710	 0.0178
1600.7997	 0.0181
1602.7284	 0.0184
1604.6570	 0.0183
1606.5857	 0.0185
1608.5144	 0.0186
1610.4431	 0.0182
1612.3717	 0.0178
1614.3004	 0.0184
1616.2291	 0.0197
1618.1578	 0.0189
1620.0864	 0.0181
1622.0151	 0.0189
1623.9438	 0.0192
1625.8724	 0.0186
1627.8011	 0.0185
1629.7298	 0.0180
1631.6585	 0.0177
1633.5871	 0.0191
1635.5158	 0.0216
1637.4445	 0.0204
1639.3732	 0.0186
1641.3018	 0.0179
1643.2305	 0.0182
1645.1592	 0.0201
1647.0879	 0.0220
1649.0165	 0.0202
1650.9452	 0.0200
1652.8739	 0.0230
1654.8026	 0.0208
1656.7312	 0.0182
1658.6599	 0.0173
1660.5886	 0.0177
1662.5173	 0.0181
1664.4459	 0.0169
1666.3746	 0.0164
1668.3033	 0.0177
1670.2320	 0.0179
1672.1606	 0.0163
1674.0893	 0.0159
1676.0180	 0.0151
1677.9467	 0.0142
1679.8753	 0.0145
1681.8040	 0.0156
1683.7327	 0.0175
1685.6614	 0.0154
1687.5900	 0.0136
1689.5187	 0.0130
1691.4474	 0.0121
1693.3760	 0.0123
1695.3047	 0.0142
1697.2334	 0.0152
1699.1621	 0.0154
1701.0907	 0.0145
1703.0194	 0.0133
1704.9481	 0.0136
1706.8768	 0.0131
1708.8054	 0.0122
1710.7341	 0.0120
1712.6628	 0.0129
1714.5915	 0.0148
1716.5201	 0.0167
1718.4488	 0.0157
1720.3775	 0.0135
1722.3062	 0.0130
1724.2348	 0.0129
1726.1635	 0.0127
1728.0922	 0.0133
1730.0209	 0.0144
1731.9495	 0.0155
1733.8782	 0.0166
1735.8069	 0.0147
1737.7356	 0.0139
1739.6642	 0.0141
1741.5929	 0.0140
1743.5216	 0.0138
1745.4503	 0.0138
1747.3789	 0.0142
1749.3076	 0.0145
1751.2363	 0.0132
1753.1650	 0.0112
1755.0936	 0.0107
1757.0223	 0.0107
1758.9510	 0.0102
1760.8797	 0.0103
1762.8083	 0.0097
1764.7370	 0.0088
1766.6657	 0.0090
1768.5943	 0.0096
1770.5230	 0.0105
1772.4517	 0.0109
1774.3804	 0.0095
1776.3090	 0.0084
1778.2377	 0.0083
1780.1664	 0.0086
1782.0951	 0.0083
1784.0237	 0.0080
1785.9524	 0.0078
1787.8811	 0.0076
1789.8098	 0.0085
1791.7384	 0.0097
1793.6671	 0.0091
1795.5958	 0.0083
1797.5245	 0.0082
1799.4531	 0.0085
1801.3818	 0.0085
1803.3105	 0.0078
1805.2392	 0.0073
1807.1678	 0.0074
1809.0965	 0.0078
1811.0252	 0.0080
1812.9539	 0.0075
1814.8825	 0.0071
1816.8112	 0.0072
1818.7399	 0.0071
1820.6686	 0.0070
1822.5972	 0.0075
1824.5259	 0.0081
1826.4546	 0.0081
1828.3833	 0.0086
1830.3119	 0.0088
1832.2406	 0.0076
1834.1693	 0.0072
1836.0979	 0.0074
1838.0266	 0.0073
1839.9553	 0.0072
1841.8840	 0.0078
1843.8126	 0.0088
1845.7413	 0.0085
1847.6700	 0.0078
1849.5987	 0.0073
1851.5273	 0.0070
1853.4560	 0.0070
1855.3847	 0.0070
1857.3134	 0.0070
1859.2420	 0.0071
1861.1707	 0.0071
1863.0994	 0.0071
1865.0281	 0.0075
1866.9567	 0.0086
1868.8854	 0.0091
1870.8141	 0.0080
1872.7428	 0.0071
1874.6714	 0.0070
1876.6001	 0.0070
1878.5288	 0.0070
1880.4575	 0.0070
1882.3861	 0.0070
1884.3148	 0.0071
1886.2435	 0.0072
1888.1722	 0.0076
1890.1008	 0.0078
1892.0295	 0.0073
1893.9582	 0.0074
1895.8869	 0.0074
1897.8155	 0.0071
1899.7442	 0.0070
1901.6729	 0.0071
1903.6016	 0.0071
1905.5302	 0.0071
1907.4589	 0.0074
1909.3876	 0.0076
1911.3162	 0.0073
1913.2449	 0.0070
1915.1736	 0.0072
1917.1023	 0.0078
1919.0309	 0.0078
1920.9596	 0.0077
1922.8883	 0.0079
1924.8170	 0.0075
1926.7456	 0.0071
1928.6743	 0.0071
1930.6030	 0.0071
1932.5317	 0.0071
1934.4603	 0.0071
1936.3890	 0.0071
1938.3177	 0.0071
1940.2464	 0.0075
1942.1750	 0.0080
1944.1037	 0.0078
1946.0324	 0.0074
1947.9611	 0.0072
1949.8897	 0.0071
1951.8184	 0.0071
1953.7471	 0.0072
1955.6758	 0.0073
1957.6044	 0.0072
1959.5331	 0.0072
1961.4618	 0.0073
1963.3905	 0.0072
1965.3191	 0.0075
1967.2478	 0.0077
1969.1765	 0.0074
1971.1052	 0.0072
1973.0338	 0.0072
1974.9625	 0.0072
1976.8912	 0.0072
1978.8198	 0.0072
1980.7485	 0.0073
1982.6772	 0.0073
1984.6059	 0.0073
1986.5345	 0.0074
1988.4632	 0.0075
1990.3919	 0.0078
1992.3206	 0.0079
1994.2492	 0.0076
1996.1779	 0.0073
1998.1066	 0.0074
2000.0353	 0.0073
2001.9639	 0.0073
2003.8926	 0.0073
2005.8213	 0.0074
2007.7500	 0.0074
2009.6786	 0.0074
2011.6073	 0.0074
2013.5360	 0.0074
2015.4647	 0.0076
2017.3933	 0.0078
2019.3220	 0.0076
2021.2507	 0.0075
2023.1794	 0.0075
2025.1080	 0.0075
2027.0367	 0.0075
2028.9654	 0.0074
2030.8941	 0.0074
2032.8227	 0.0074
2034.7514	 0.0075
2036.6801	 0.0075
2038.6088	 0.0075
2040.5374	 0.0076
2042.4661	 0.0076
2044.3948	 0.0075
2046.3234	 0.0075
2048.2521	 0.0075
2050.1808	 0.0075
2052.1095	 0.0075
2054.0381	 0.0075
2055.9668	 0.0075
2057.8955	 0.0075
2059.8242	 0.0076
2061.7528	 0.0076
2063.6815	 0.0077
2065.6102	 0.0077
2067.5389	 0.0076
2069.4675	 0.0075
2071.3962	 0.0075
2073.3249	 0.0075
2075.2536	 0.0075
2077.1822	 0.0075
2079.1109	 0.0075
2081.0396	 0.0075
2082.9683	 0.0075
2084.8969	 0.0075
2086.8256	 0.0075
2088.7543	 0.0076
2090.6830	 0.0076
2092.6116	 0.0075
2094.5403	 0.0075
2096.4690	 0.0075
2098.3977	 0.0075
2100.3263	 0.0075
2102.2550	 0.0075
2104.1837	 0.0075
2106.1124	 0.0075
2108.0410	 0.0075
2109.9697	 0.0075
2111.8984	 0.0075
2113.8271	 0.0075
2115.7557	 0.0075
2117.6844	 0.0075
2119.6131	 0.0075
2121.5417	 0.0075
2123.4704	 0.0075
2125.3991	 0.0075
2127.3278	 0.0075
2129.2564	 0.0075
2131.1851	 0.0075
2133.1138	 0.0075
2135.0425	 0.0075
2136.9711	 0.0075
2138.8998	 0.0075
2140.8285	 0.0075
2142.7572	 0.0075
2144.6858	 0.0075
2146.6145	 0.0075
2148.5432	 0.0075
2150.4719	 0.0075
2152.4005	 0.0075
2154.3292	 0.0075
2156.2579	 0.0074
2158.1866	 0.0074
2160.1152	 0.0075
2162.0439	 0.0074
2163.9726	 0.0074
2165.9013	 0.0074
2167.8299	 0.0074
2169.7586	 0.0074
2171.6873	 0.0074
2173.6160	 0.0074
2175.5446	 0.0074
2177.4733	 0.0074
2179.4020	 0.0074
2181.3307	 0.0074
2183.2593	 0.0073
2185.1880	 0.0073
2187.1167	 0.0073
2189.0453	 0.0074
2190.9740	 0.0073
2192.9027	 0.0073
2194.8314	 0.0073
2196.7600	 0.0073
2198.6887	 0.0073
2200.6174	 0.0073
2202.5461	 0.0073
2204.4747	 0.0073
2206.4034	 0.0073
2208.3321	 0.0073
2210.2608	 0.0073
2212.1894	 0.0072
2214.1181	 0.0072
2216.0468	 0.0072
2217.9755	 0.0073
2219.9041	 0.0073
2221.8328	 0.0072
2223.7615	 0.0072
2225.6902	 0.0072
2227.6188	 0.0073
2229.5475	 0.0072
2231.4762	 0.0072
2233.4049	 0.0072
2235.3335	 0.0072
2237.2622	 0.0072
2239.1909	 0.0072
2241.1196	 0.0073
2243.0482	 0.0073
2244.9769	 0.0073
2246.9056	 0.0073
2248.8343	 0.0073
2250.7629	 0.0074
2252.6916	 0.0074
2254.6203	 0.0074
2256.5490	 0.0074
2258.4776	 0.0075
2260.4063	 0.0075
2262.3350	 0.0075
2264.2636	 0.0076
2266.1923	 0.0076
2268.1210	 0.0076
2270.0497	 0.0076
2271.9783	 0.0076
2273.9070	 0.0076
2275.8357	 0.0076
2277.7644	 0.0076
2279.6930	 0.0075
2281.6217	 0.0075
2283.5504	 0.0075
2285.4791	 0.0076
2287.4077	 0.0078
2289.3364	 0.0080
2291.2651	 0.0082
2293.1938	 0.0085
2295.1224	 0.0087
2297.0511	 0.0090
2298.9798	 0.0093
2300.9085	 0.0097
2302.8371	 0.0100
2304.7658	 0.0105
2306.6945	 0.0112
2308.6232	 0.0119
2310.5518	 0.0125
2312.4805	 0.0130
2314.4092	 0.0133
2316.3379	 0.0138
2318.2665	 0.0148
2320.1952	 0.0159
2322.1239	 0.0168
2324.0526	 0.0172
2325.9812	 0.0175
2327.9099	 0.0182
2329.8386	 0.0189
2331.7672	 0.0191
2333.6959	 0.0190
2335.6246	 0.0192
2337.5533	 0.0195
2339.4819	 0.0199
2341.4106	 0.0201
2343.3393	 0.0202
2345.2680	 0.0192
2347.1966	 0.0169
2349.1253	 0.0162
2351.0540	 0.0179
2352.9827	 0.0204
2354.9113	 0.0224
2356.8400	 0.0239
2358.7687	 0.0247
2360.6974	 0.0248
2362.6260	 0.0245
2364.5547	 0.0237
2366.4834	 0.0223
2368.4121	 0.0208
2370.3407	 0.0191
2372.2694	 0.0173
2374.1981	 0.0157
2376.1268	 0.0141
2378.0554	 0.0125
2379.9841	 0.0110
2381.9128	 0.0096
2383.8415	 0.0085
2385.7701	 0.0078
2387.6988	 0.0075
2389.6275	 0.0074
2391.5562	 0.0073
2393.4848	 0.0073
2395.4135	 0.0073
2397.3422	 0.0073
2399.2708	 0.0073
2401.1995	 0.0073
2403.1282	 0.0073
2405.0569	 0.0073
2406.9855	 0.0073
2408.9142	 0.0073
2410.8429	 0.0073
2412.7716	 0.0073
2414.7002	 0.0074
2416.6289	 0.0074
2418.5576	 0.0073
2420.4863	 0.0073
2422.4149	 0.0073
2424.3436	 0.0074
2426.2723	 0.0074
2428.2010	 0.0074
2430.1296	 0.0074
2432.0583	 0.0074
2433.9870	 0.0074
2435.9157	 0.0074
2437.8443	 0.0074
2439.7730	 0.0074
2441.7017	 0.0074
2443.6304	 0.0075
2445.5590	 0.0075
2447.4877	 0.0075
2449.4164	 0.0075
2451.3451	 0.0075
2453.2737	 0.0075
2455.2024	 0.0075
2457.1311	 0.0075
2459.0598	 0.0075
2460.9884	 0.0075
2462.9171	 0.0075
2464.8458	 0.0075
2466.7745	 0.0076
2468.7031	 0.0076
2470.6318	 0.0076
2472.5605	 0.0076
2474.4891	 0.0076
2476.4178	 0.0076
2478.3465	 0.0076
2480.2752	 0.0076
2482.2038	 0.0076
2484.1325	 0.0076
2486.0612	 0.0076
2487.9899	 0.0076
2489.9185	 0.0076
2491.8472	 0.0076
2493.7759	 0.0076
2495.7046	 0.0076
2497.6332	 0.0076
2499.5619	 0.0077
2501.4906	 0.0077
2503.4193	 0.0077
2505.3479	 0.0077
2507.2766	 0.0077
2509.2053	 0.0077
2511.1340	 0.0077
2513.0626	 0.0077
2514.9913	 0.0077
2516.9200	 0.0077
2518.8487	 0.0077
2520.7773	 0.0077
2522.7060	 0.0078
2524.6347	 0.0078
2526.5634	 0.0078
2528.4920	 0.0078
2530.4207	 0.0078
2532.3494	 0.0078
2534.2781	 0.0078
2536.2067	 0.0078
2538.1354	 0.0078
2540.0641	 0.0078
2541.9927	 0.0078
2543.9214	 0.0078
2545.8501	 0.0078
2547.7788	 0.0078
2549.7074	 0.0078
2551.6361	 0.0079
2553.5648	 0.0079
2555.4935	 0.0079
2557.4221	 0.0078
2559.3508	 0.0079
2561.2795	 0.0079
2563.2082	 0.0079
2565.1368	 0.0079
2567.0655	 0.0079
2568.9942	 0.0079
2570.9229	 0.0079
2572.8515	 0.0079
2574.7802	 0.0080
2576.7089	 0.0079
2578.6376	 0.0079
2580.5662	 0.0079
2582.4949	 0.0080
2584.4236	 0.0080
2586.3523	 0.0080
2588.2809	 0.0080
2590.2096	 0.0080
2592.1383	 0.0080
2594.0670	 0.0080
2595.9956	 0.0080
2597.9243	 0.0081
2599.8530	 0.0081
2601.7817	 0.0081
2603.7103	 0.0081
2605.6390	 0.0081
2607.5677	 0.0081
2609.4964	 0.0081
2611.4250	 0.0081
2613.3537	 0.0081
2615.2824	 0.0082
2617.2110	 0.0082
2619.1397	 0.0082
2621.0684	 0.0082
2622.9971	 0.0083
2624.9257	 0.0083
2626.8544	 0.0083
2628.7831	 0.0083
2630.7118	 0.0083
2632.6404	 0.0083
2634.5691	 0.0083
2636.4978	 0.0083
2638.4265	 0.0083
2640.3551	 0.0084
2642.2838	 0.0084
2644.2125	 0.0084
2646.1412	 0.0084
2648.0698	 0.0084
2649.9985	 0.0084
2651.9272	 0.0084
2653.8559	 0.0085
2655.7845	 0.0085
2657.7132	 0.0085
2659.6419	 0.0085
2661.5706	 0.0085
2663.4992	 0.0085
2665.4279	 0.0086
2667.3566	 0.0086
2669.2853	 0.0086
2671.2139	 0.0086
2673.1426	 0.0086
2675.0713	 0.0086
2677.0000	 0.0087
2678.9286	 0.0087
2680.8573	 0.0087
2682.7860	 0.0087
2684.7146	 0.0087
2686.6433	 0.0087
2688.5720	 0.0087
2690.5007	 0.0088
2692.4293	 0.0088
2694.3580	 0.0088
2696.2867	 0.0088
2698.2154	 0.0089
2700.1440	 0.0089
2702.0727	 0.0089
2704.0014	 0.0089
2705.9301	 0.0089
2707.8587	 0.0089
2709.7874	 0.0090
2711.7161	 0.0090
2713.6448	 0.0090
2715.5734	 0.0090
2717.5021	 0.0090
2719.4308	 0.0091
2721.3595	 0.0091
2723.2881	 0.0091
2725.2168	 0.0091
2727.1455	 0.0091
2729.0742	 0.0091
2731.0028	 0.0092
2732.9315	 0.0092
2734.8602	 0.0092
2736.7889	 0.0092
2738.7175	 0.0092
2740.6462	 0.0092
2742.5749	 0.0092
2744.5036	 0.0093
2746.4322	 0.0093
2748.3609	 0.0093
2750.2896	 0.0093
2752.2182	 0.0093
2754.1469	 0.0094
